"AF3","AF4","F3","F4","F7","F8","FC5","FC6","O1","O2","P7","P8","T7","T8",
-13.5898,-4.8716,-0.76904,8.4614,-8.9741,8.9746,0.76953,7.9487,-0.25635,5.8975,-4.3589,0.25635,5.3848,-0.25635,
-14.6152,-7.436,1.2822,0.25635,-7.436,6.4102,4.8716,5.3848,-1.7949,1.2822,-0.76904,-0.25635,2.3076,-1.7949,
-11.7949,-7.1797,2.564,0,-10.2563,5.6411,4.1025,14.8716,-1.0259,-0.5127,0,-1.0259,6.6665,0.5127,
-11.2822,-4.6152,-1.0254,8.2051,-8.2051,7.6924,-0.5127,17.436,-3.5898,0.5127,-3.5898,0.5127,8.2051,1.5386,
-12.051,-4.8718,-1.282,13.5901,-4.3586,10.5129,1.282,11.5383,-5.3845,0.76929,-5.8972,0.76929,2.8206,-0.76929,
-10.7693,-3.5896,3.0769,16.4104,-8.2053,9.2307,3.0769,10.2561,-3.5896,2.051,-4.1028,-0.51294,0.51294,-1.5383,
-14.6152,-4.8716,2.3076,8.4614,-17.1797,0.76904,0.25635,8.9741,-2.3076,2.3076,-0.25635,-2.3076,1.7949,-2.3076,
-16.4106,-5.1284,1.0254,2.564,-12.3081,-1.0259,2.564,8.7178,-1.5386,1.5381,-1.0259,0,4.1025,0,
-17.4355,-5.6406,0,8.7183,-8.7178,2.5645,3.5898,7.6924,-3.0767,-1.5381,-7.1792,0.51318,4.1025,0,
-16.1538,-7.436,0.25635,12.0513,-10,1.7949,3.3335,9.4873,-1.2822,0.76904,-6.9229,-0.25635,1.7949,-2.8203,
-12.8203,-3.0767,1.5386,6.6665,-4.6152,4.1025,3.5898,11.2822,-1.5386,2.564,-2.564,1.5386,-4.6152,-2.564,
-12.5642,-3.8459,-0.25659,5.3845,-0.76929,7.4358,4.3591,8.4617,-2.8206,0.25659,-1.282,2.3079,-4.8718,3.3333,
-11.2822,-10.769,0,5.6411,-2.564,4.6152,2.564,6.6665,-3.0771,0.5127,-2.0513,0,-3.0771,3.5898,
-3.0769,-3.0769,3.0769,7.1794,-2.5642,7.1794,0.51294,13.3333,-2.5642,4.6155,-2.0515,-0.51294,-8.718,2.051,
-6.1538,1.5386,5.1284,8.7178,-2.564,8.2051,1.0259,12.3076,-2.0513,0,-2.0513,-2.0513,-11.2822,0,
-10.5129,-2.3079,11.5383,16.1541,-0.25659,7.4358,4.8718,11.5383,-0.25659,-1.282,-1.282,0.25659,-3.8459,1.7947,
-12.8206,-6.6667,9.2307,12.8206,-8.2053,1.5383,1.5383,8.718,-0.51294,1.0256,-4.1023,-0.51294,-5.1282,0.51294,
-18.7183,-6.4106,1.2817,3.8462,-17.1797,-4.8721,-0.25635,1.7949,2.8203,3.8462,-2.3076,1.2817,-5.3848,0.25635,
-19.231,-2.3076,0.25635,5.8975,-11.5386,-1.7949,-1.2822,4.8716,2.8203,3.3335,-0.25635,3.3335,-2.8208,2.8203,
-7.436,2.3076,8.9741,13.5894,-3.3335,3.8462,2.3076,11.0254,-0.25635,0.25635,-2.8208,-0.25635,-4.8721,-1.2822,
-0.76929,2.3074,9.9998,16.6667,-6.9231,2.8206,2.3074,3.3333,-4.3591,0.76929,-7.949,-5.8977,-13.5901,-5.8977,
-5.6411,-2.0513,4.1025,15.8975,-7.1792,2.564,0.5127,3.0771,-1.0254,4.6152,-8.7178,1.5386,-12.8203,-0.5127,
-11.2822,-7.6924,-2.564,7.6924,-6.1538,1.0259,0,6.6665,0,5.1284,-4.1025,7.1797,-8.7178,0.5127,
-7.4358,-8.4617,-2.3079,5.3845,-5.8972,0.25659,0.25659,5.3845,-1.7947,4.8718,2.3079,2.8206,-9.4871,-0.25659,
-1.7947,-7.4358,-0.25659,5.3845,-4.8718,1.7947,-0.25659,6.4104,3.8459,4.3591,4.3591,0.25659,-9.4871,-0.25659,
-1.5386,-1.0259,-0.5127,2.0513,-1.0259,3.5898,-1.5386,9.2305,2.564,4.6152,0,2.0513,-5.6411,0,
-3.0769,1.0256,-0.51294,3.5896,-0.51294,3.0769,-1.0256,6.6667,-5.6409,5.1282,-4.6155,3.5896,-7.1794,0.51294,
-7.6921,-9.2307,-0.51294,6.6667,-8.2053,3.5896,1.5383,3.5896,-3.0769,7.6921,-4.1028,3.0769,-9.7439,0.51294,
-15.1284,-11.5386,-1.7949,6.4102,-11.0259,3.8462,-0.25635,7.4355,0.25635,5.3843,-0.25635,6.9229,-7.436,0.76904,
-17.9487,-5.6406,-7.6924,8.2051,-4.6152,0,0,9.7437,0,3.5898,3.5898,7.1797,-5.6406,1.5386,
-10.5129,-2.3079,-8.9744,9.9998,0.25659,1.7947,1.282,8.9744,-1.7947,1.282,-0.25659,-0.25659,-6.9231,0.76929,
-1.0256,-2.0515,1.0256,9.2307,-1.5388,3.5896,4.615,11.7947,-2.5642,-1.0256,-1.5388,6.1536,-4.6155,3.0769,
-0.76929,-7.949,2.8206,7.4358,-4.8718,-2.8206,3.8459,7.4358,-3.3333,0.76929,-3.3333,9.9998,-8.4617,1.282,
-1.7947,-5.8972,1.282,13.0769,-0.25659,0.25659,-0.76929,2.8206,-3.8459,4.8718,-6.4104,3.8459,-12.0515,0.25659,
0,-1.0259,0,12.8203,-1.5386,2.564,0,1.0254,-2.0513,4.6152,-3.5898,-3.0771,-7.6924,1.5381,
-1.2822,-3.3335,-4.8716,5.8975,-4.8716,1.2822,-0.25635,1.7949,-1.7949,4.3589,1.2822,2.8203,-9.4873,0.25635,
-0.76929,-4.3591,-3.8459,5.8972,-0.76929,5.3845,-4.3591,4.8718,-1.282,7.9485,0.76929,8.9744,-11.5383,6.4104,
-0.51318,-7.6924,0,2.0513,-2.0513,0,-1.0259,2.564,1.0254,7.6919,-1.0259,2.0513,-6.667,6.6665,
-1.0254,-6.6665,0,-0.51269,0,0.51318,3.5898,1.0259,-1.0254,5.6411,1.0259,-1.0254,-5.1279,0.51318,
-2.3079,-4.8718,-0.76929,2.3079,7.9485,8.4617,1.7947,-1.282,-3.8459,0.76929,0.76929,-0.76929,-8.4617,1.282,
-1.5386,-6.6665,-1.0259,6.6665,7.1792,3.5898,2.0513,1.0254,-2.564,0,-1.0259,0,-7.1797,4.6152,
0,-5.6406,-4.6152,5.6411,4.1025,0,0,4.1025,-1.0254,2.5645,-5.1279,2.5645,-10.769,2.5645,
0,-3.0771,-6.667,1.5381,7.1792,7.6924,-3.0771,2.0513,-1.0259,0,-3.0771,2.564,-15.3848,0.5127,
-2.5642,-0.51294,-3.0769,6.6667,0.51294,4.1023,-2.0515,-1.5383,-0.51294,3.0769,2.5642,3.0769,-11.7952,2.051,
-5.1284,-2.0513,0.5127,11.2817,-10.2563,-1.0259,-0.51269,-3.0771,1.5386,8.7178,0.5127,3.0767,-9.231,1.0254,
-1.7949,-4.3589,-0.25635,5.8975,-3.8462,8.4614,-2.8203,0.25635,0.25635,3.3335,-3.3335,0.25635,-11.0259,0.25635,
1.0254,-2.564,-4.6152,0.5127,9.2305,13.333,-1.5386,2.564,-0.5127,1.5386,-3.5898,-2.0513,-8.2051,3.5898,
-8.7178,-6.6665,-9.2305,-1.5386,-0.5127,2.0513,0,0,3.5898,7.6924,0.51318,1.0259,-3.0767,2.5645,
-14.8718,-6.1541,-10.2566,0.51294,-10.7693,-0.51294,-3.5901,3.5896,4.6155,5.1282,5.1282,2.5642,-3.5901,2.5642,
-6.9231,-2.8206,-10.0002,0.25659,-5.8977,5.8972,-3.8459,4.8718,-0.25659,0.76929,4.3591,0.25659,-8.4617,1.7947,
-0.51269,-6.6665,-6.1538,0,1.0259,6.6665,0,1.0259,0,5.1284,-2.0513,4.1025,-10.2563,1.0259,
0.25659,-8.9744,-1.7947,-0.25659,2.8206,3.8459,-0.25659,0.76929,-0.76929,5.8972,-4.8718,5.3845,-10.0002,2.8206,
0,-8.7178,-1.5381,-1.5381,0.51318,-2.0513,3.5898,2.5645,-2.564,4.6157,0.51318,0.51318,-5.6411,0,
0,-9.231,-1.5386,1.0254,-3.5898,-7.6924,5.6411,4.6152,-1.0259,5.1279,4.1025,0,-3.5898,1.0254,
-0.25635,-9.4873,-4.8716,1.7949,-5.8975,-8.4614,3.3335,3.8462,0.25635,3.8462,-1.2817,2.3076,-8.4614,3.3335,
1.7949,-5.3848,-8.4614,1.2822,-3.3335,-6.9233,5.8975,0.25635,-0.25635,4.3589,-2.8203,2.8203,-6.9233,1.2822,
0,-3.0771,-8.7183,1.5381,-0.51318,-6.1543,5.1279,0,-0.51318,6.6665,2.564,1.5381,-4.6157,0.5127,
-7.6924,-7.6924,-7.1797,-4.6152,-3.0771,-10.769,3.0771,5.6411,6.6665,9.7437,7.6924,3.5898,-4.6152,5.6411,
-13.3335,-9.7437,-6.1538,-10.769,-5.6411,-11.2822,4.1025,6.1538,8.2051,6.1538,5.1284,4.6152,-4.1025,6.6665,
-13.3335,-7.6924,-5.6411,-5.6411,-3.0771,-3.5898,3.0767,1.5386,4.1025,2.0513,5.1279,4.1025,-1.5386,4.1025,
-14.1028,-9.4871,-7.949,-4.8718,-2.3079,-0.76929,3.3333,0.76929,5.3845,8.9744,11.0256,5.8972,-1.282,3.3333,
-12.3076,-6.667,-8.2051,-6.1538,-5.1284,-5.1284,7.1792,5.1279,4.1025,15.3843,9.7437,9.7437,-4.1025,5.6411,
-11.0254,-3.8462,-6.4102,-1.2822,-10.5127,-13.5898,6.9233,4.8721,1.2822,15.6411,2.3076,7.9487,-3.8462,6.9233,
-16.4099,-3.5896,-4.1023,-1.0256,-11.282,-11.282,4.1028,3.0769,1.5388,15.8977,1.0256,5.1282,-2.051,8.2053,
-21.7949,-4.3589,0.25635,-3.3335,-6.9229,-7.436,1.7949,2.3076,-0.25635,11.0259,1.2822,5.3848,-2.3076,6.9233,
-17.6924,-7.436,1.7949,-2.3076,-5.3848,-13.0771,3.333,0.25635,-0.25635,4.8716,4.3589,3.8462,-2.3076,5.3843,
-11.7952,-0.51294,0.51294,4.1023,-3.0769,-9.2307,0.51294,-1.0256,-0.51294,4.6155,3.0769,1.0256,-5.6414,3.5896,
-15.6411,5.8975,1.2822,6.9233,-3.333,0.76953,-2.8203,-0.25635,-1.2817,4.3589,0.25635,-0.76904,-7.436,1.2822,
-18.9741,3.0771,1.0259,4.6152,-2.564,-0.5127,-0.5127,0,0,5.6411,3.0771,-2.0513,-4.6152,1.5386,
-19.4873,-0.51269,-4.6152,3.5898,4.1025,-1.5386,0,-1.0254,0,4.6152,2.0513,2.0513,-8.7178,3.5898,
-19.4873,-2.5645,-6.667,1.5381,9.2305,8.2051,0,0,0,3.0767,-1.0259,8.7178,-12.8208,7.6919,
-18.9746,-2.5645,-2.0513,-1.0259,10.2563,10.769,0,1.0254,0,4.1025,-0.51318,6.1538,-9.231,10.2563,
-17.9487,-1.5386,-0.5127,-5.6411,9.7437,2.0513,0.51269,0,2.564,3.0771,0,-2.0513,-5.1279,2.564,
-14.6152,2.3076,-0.76904,-3.8462,9.4873,-0.25635,2.3076,0.25635,3.3335,2.8203,0.76904,-3.8462,-4.8716,-3.3335,
-18.2053,0.25659,-3.8459,2.8206,8.4617,1.282,1.282,-3.8459,-3.8459,2.3079,-3.8459,-0.25659,-12.5642,0.76929,
-23.0771,-2.0513,-6.6665,1.5386,7.1792,2.564,2.0513,-6.6665,-1.5386,4.1025,-3.0771,4.6152,-13.3335,3.0767,
-20.7693,-0.76929,-7.4358,-5.3845,7.4358,1.282,-1.282,-2.8206,1.7947,6.4099,0.76929,4.3586,-7.949,1.7947,
-12.8208,-1.5386,-3.0771,-1.5386,13.8462,0.5127,-1.0259,1.5386,0.5127,8.7178,1.0254,-0.51269,-4.1025,8.2051,
-14.6157,-4.3589,0.25635,7.4355,7.9487,-2.8208,2.3076,-0.25635,-0.76953,7.9487,0.76904,-4.3589,-6.4102,8.4614,
-19.7437,0.25635,-0.25635,8.9741,-5.8975,-7.9487,1.7949,-0.76953,0.76904,5.3843,1.7949,-1.7949,-8.4619,0.25635,
-11.2817,5.1284,-2.0513,5.6411,2.0513,-5.6406,1.0259,-1.0254,0,5.1284,0,1.5386,-5.6406,-1.5381,
-6.1541,2.051,-3.5901,1.5383,17.0513,1.0256,1.5383,-2.5642,-4.1028,3.5896,-3.5901,-1.0256,-8.2053,1.0256,
-13.0771,-1.2822,-1.7949,0.25635,13.5898,0.25635,2.8203,-1.2822,-0.25635,6.9229,2.3076,-2.3076,-5.3848,5.8975,
-15.3848,0,-3.5898,4.1025,0.5127,-5.6411,0,-4.6152,-0.51269,5.6411,0.5127,0.5127,-5.1279,6.6665,
-4.1025,8.7178,-3.5898,13.8462,8.7178,4.1025,-2.0513,0,-6.667,0,-5.1284,7.6924,-9.231,7.6924,
-10.2566,2.5642,-6.1541,5.6409,6.1541,5.1282,-3.0769,2.5642,-10.7693,-5.1282,-2.5642,5.6409,-8.718,4.1023,
-19.4873,-1.0259,-5.1284,0,-2.0513,0,0,2.564,-4.6157,3.5894,3.0767,9.7432,-1.5386,10.769,
-17.9487,1.0259,-4.1025,-1.0254,1.0259,0.5127,-0.5127,1.5386,-1.5386,10.769,-0.5127,13.8462,-3.0767,12.8208,
-16.6667,-0.76929,-4.3591,-6.4104,5.8972,1.282,-1.282,0.25659,-0.25659,5.8972,3.3333,6.4104,-4.3591,4.8718,
-21.5386,-0.5127,-7.6924,1.5386,-1.5386,0.5127,-6.1538,0.5127,-6.6665,1.0259,6.1538,2.564,-3.5898,1.5386,
-17.1794,0.76929,-5.3845,16.1536,-10.0002,4.8718,-6.4104,1.282,-10.5129,6.9231,-0.76929,6.9231,-6.4104,5.3845,
-12.0515,1.282,-1.282,13.0769,-3.8464,4.8718,-2.3079,1.7947,-7.4358,5.8972,-8.9744,4.3586,-10.5129,6.4104,
-18.7178,-0.25635,-3.8462,5.8975,0.25635,1.2822,-3.333,4.3589,-7.9487,4.3589,-5.3843,1.7949,-7.9487,4.8721,
-23.3333,-4.3591,-5.3845,6.4104,-10.0002,1.282,-2.8206,3.8459,-6.4104,8.9744,4.8718,7.4358,-1.282,9.4871,
-18.9744,-1.0256,-3.5896,6.6667,-8.718,4.1028,-2.051,1.0256,-2.5637,11.7952,1.5388,12.8206,-1.0256,14.3591,
-20,0,0,3.5898,-0.5127,2.564,-3.5898,2.564,-2.564,9.7437,-4.6152,9.231,-5.6411,7.6924,
-23.5896,-3.5896,3.5896,5.6409,-2.5642,1.0256,-6.1541,2.5642,-7.6921,2.5642,-0.51294,0.51294,-11.282,2.051,
-20.0002,1.5383,2.5642,6.1536,-1.0256,4.1023,-6.1541,-0.51294,-8.718,3.5896,-0.51294,0.51294,-10.7693,6.1536,
-19.4871,3.5896,-1.0256,1.0256,1.5383,4.6155,-4.6155,-1.5383,-5.1282,12.3079,-5.6409,3.0769,-5.1282,6.6667,
-19.2307,-0.76929,0.76929,0.76929,-5.3845,3.8459,-3.3333,1.7947,-2.3079,11.0256,-1.7952,1.282,-3.8464,3.8459,
-16.4102,-0.5127,4.1025,-0.5127,-9.7437,3.5898,0,3.5898,-0.5127,3.0771,7.1797,0,-2.0513,8.2051,
-15.6409,4.3591,-2.3079,-1.282,-0.76929,0.25659,0.25659,-0.25659,-3.3333,4.3591,5.3845,2.8206,-1.282,11.0256,
-10.5127,3.8462,-5.3843,6.4102,6.4102,0.25635,-0.25635,-1.2817,-9.4868,6.4102,-0.25635,2.3076,-6.9229,8.9746,
-4.8718,-0.76929,4.8718,6.9231,4.8718,3.3333,0.25659,-1.282,-8.9744,1.7947,-0.25659,-5.3845,-11.5383,3.8459,
-6.1538,2.0513,6.1538,1.0259,8.7183,6.667,-4.6152,0.51269,-8.7178,-0.5127,-0.5127,-5.6411,-10.2563,1.0259,
-8.2051,5.1284,-4.6152,4.1025,10.2563,6.6665,-3.0767,2.564,-8.7178,0,0,-1.0254,-5.6411,4.1025,
-8.9746,4.8716,-4.8721,7.9487,3.8462,1.2817,0.76904,-0.76953,-9.4873,-0.25635,0.25635,-4.3589,-6.9233,5.3843,
-8.4614,7.436,3.3335,6.4102,1.2822,0.25635,-2.3076,-4.3589,-7.436,1.7949,-0.25635,-1.2822,-8.9741,5.3848,
-12.3076,5.6411,-3.0767,0,0,2.0513,-6.6665,-3.5898,-2.564,3.0771,2.0513,5.6411,-5.6411,7.1797,
-15.8975,7.1792,-8.7178,-0.5127,-2.564,7.1792,-8.7178,0.5127,-4.1025,4.6152,0.5127,8.7178,-5.1284,7.1792,
-14.1025,8.9746,-5.8975,1.2822,-4.8716,10,-6.4102,-0.76904,-4.8716,5.3848,0.76904,11.0259,-6.9229,6.9229,
-14.3591,5.1282,-9.7434,-1.0256,-6.1536,6.1541,-0.51294,-2.051,0.51294,7.6921,8.718,10.7693,-2.051,12.3079,
-16.4102,2.0513,-16.4102,-5.1279,-3.5898,3.0771,-0.51269,0.5127,-2.564,8.7178,7.1797,4.6152,-0.51269,13.8462,
-9.231,-0.5127,-12.3076,-6.1538,1.0254,5.1279,-1.5386,0.5127,-8.7178,7.1792,2.0513,4.1025,-3.5898,7.6924,
-4.1028,0.51294,-8.2053,-3.0769,-0.51294,10.2566,-5.6409,2.051,-11.282,2.051,0.51294,9.7434,-5.6409,5.6409,
-9.7437,5.6411,-8.2051,2.0513,-0.5127,9.7437,-8.2051,0.5127,-13.3335,0.5127,-2.0513,4.6152,-5.6411,5.1284,
-8.4612,8.4617,-6.4099,3.8464,4.3591,5.8977,-3.3333,-3.3333,-12.051,3.8464,-0.76929,0.76929,-4.3586,4.8718,
-6.1538,6.667,-6.1538,0.51269,2.564,3.5898,-6.1538,-6.1538,-11.7949,4.6152,-0.5127,6.1538,-4.6152,4.6152,
-12.0515,3.3333,-5.3845,0.76929,-0.25659,5.3845,-8.9744,-2.3079,-7.4358,6.9231,0.25659,6.9231,-0.76929,8.9744,
-14.8718,2.5642,-7.1794,5.6409,0.51294,7.1794,-7.6921,-0.51294,-8.2048,7.1794,-2.051,1.0256,-2.5642,10.2566,
-8.4617,7.9485,-5.3845,8.9744,3.3333,6.9231,-8.4617,-5.3845,-12.5642,4.3586,-3.3333,3.3333,-7.949,7.9485,
-5.3848,11.5386,-1.2822,4.8716,1.2822,4.8716,-9.4873,-7.9487,-9.4873,3.3335,-2.3076,4.3589,-4.3589,6.9229,
-7.1792,10.7695,0,5.1284,1.5386,6.1538,-5.6406,-4.1025,-5.1279,5.6411,0,0,0,8.2051,
-7.6921,6.6667,-2.0515,7.6921,4.1023,5.6409,-4.6155,-1.5383,-6.6667,4.1023,0.51294,-0.51294,-5.6409,5.1282,
-7.6924,5.6411,0.5127,5.6411,7.1797,5.6411,-11.7949,-6.6665,-12.3076,-0.5127,-3.0771,4.6152,-12.8203,0.5127,
-10,3.3335,-0.25635,2.3076,5.3848,5.8975,-13.5898,-12.0513,-13.0771,0.25635,-2.3076,5.8975,-10,3.3335,
-9.9998,1.7952,-4.8718,1.7952,-1.282,4.3591,-4.3586,-7.9485,-6.9231,4.3591,1.282,2.8206,-5.3845,8.4617,
-4.6152,8.2051,-0.5127,3.0771,-1.0254,4.1025,-2.564,-0.5127,-3.0767,6.6665,2.0513,0.51269,-6.1538,10.2563,
-1.2822,10.5127,4.8716,-0.25635,-0.25635,0.25635,-4.8716,0.25635,-2.3076,6.9229,4.8716,-0.76904,-1.7949,12.564,
-3.5896,5.1282,-0.51294,0.51294,-8.718,-2.5642,-2.5642,-1.5383,-3.0769,5.6409,5.6409,3.0769,0.51294,10.7693,
-3.3335,2.3076,-6.4102,2.8203,-11.5386,4.3589,-2.8208,-2.3076,-3.8462,7.9487,4.3589,10.5127,-4.3589,11.0254,
0.25635,6.4102,-2.3076,-2.8203,-5.3843,4.8721,-3.8462,-0.25635,-0.76904,14.1025,7.9487,12.0513,-1.2817,12.564,
-1.2822,7.436,1.2822,-9.4873,-6.4102,-5.3848,-2.3076,-1.7949,-1.7949,10.5127,4.3589,2.3076,2.8203,8.9741,
-0.51269,5.1284,1.5386,-6.1538,-7.6924,-5.1279,2.564,-5.6411,0,0.5127,0,-3.5898,0,8.7178,
-1.7947,4.8718,1.282,-2.8206,-7.9485,-2.3074,-1.282,-2.8206,3.8464,3.8464,5.3845,2.8206,-4.8718,13.0769,
1.0254,7.1792,0,-4.1025,-9.231,-4.6157,-5.6411,0,0,9.7432,10.2563,5.6406,-0.51318,13.8457,
8.4614,7.436,-2.8203,-5.8975,-6.4102,2.3076,-0.76904,-4.3589,-3.3335,5.8975,6.9229,-1.2822,0.76904,9.4873,
12.564,11.5386,-1.2822,-6.9229,-0.25635,13.0771,-3.3335,-6.9229,-4.3589,0.25635,2.3076,1.2822,-7.436,8.4614,
18.718,15.1282,6.4104,-4.3586,1.282,11.5388,-5.3845,-6.9231,-7.9485,-2.3074,-1.282,7.4363,-9.4871,6.9231,
23.8462,15.1284,10,0.25635,-0.25635,7.436,-0.76904,-6.4102,-11.0254,-1.2822,-2.3076,2.8203,-5.3848,6.9229,
15.1282,15.1282,3.3333,3.3333,-4.3591,8.4617,-5.8972,-4.8718,-12.0515,0.76929,-0.76929,-0.76929,-5.8972,8.4617,
7.436,13.0771,-5.8975,-0.25635,-14.1025,6.4102,-11.5386,-7.9487,-9.4873,1.2822,0.25635,3.8462,-6.4102,6.4102,
13.5898,13.0771,-4.3589,-0.25635,-16.1538,6.4102,-4.8716,-5.8975,-6.9229,1.7949,0.25635,8.9746,-0.25635,7.9487,
8.2051,9.2305,0,-1.0259,-20,0.51269,-2.564,-5.1284,-9.231,0,1.5386,4.1025,-0.5127,9.7437,
0,7.6924,5.6411,0,-23.0767,-6.6665,-4.6152,-8.2051,-6.6665,2.0513,5.6411,0.51318,-3.0767,11.7949,
2.0513,10.769,8.2051,3.5898,-20,-4.1025,-7.6924,-6.1538,-5.1284,3.0767,6.1538,-2.0513,-3.5898,11.2817,
4.8718,8.9744,9.4871,0.25659,-14.6155,-1.282,-5.8972,-3.3333,-4.8718,2.8206,9.4871,-3.3333,-0.25659,9.4871,
9.2307,10.7693,13.8464,1.0256,-3.5896,1.5388,-2.051,-7.6921,-7.6921,-1.0256,7.1794,-2.051,-3.5896,7.1794,
15.1282,19.7439,17.6926,7.949,0.76929,10.5129,-0.76929,-9.4871,-9.4871,-2.3074,-2.3074,-1.282,-7.9485,8.4617,
14.6155,16.6667,16.6667,3.8459,-2.8206,13.0769,-0.76929,-5.8972,-6.4104,0.76929,-4.8718,-3.8459,-4.8718,9.4871,
14.8721,11.2822,11.2822,-2.0513,0,14.3594,-4.1025,-3.5894,-3.0767,5.6411,0,0,-3.0767,11.2822,
12.5642,10.5129,-2.3079,-2.3079,-5.3845,17.6921,-8.4617,-6.9231,-4.3591,7.9485,2.3079,6.4104,-4.8718,8.4617,
6.1538,11.7949,-7.6924,0,-14.8716,16.4102,-12.3076,-11.2817,-11.2817,0.5127,0,6.1538,-8.2051,2.0513,
4.6155,10.2561,-0.51294,2.051,-8.718,13.8459,-15.8977,-13.8464,-12.8206,-0.51294,0.51294,3.0769,-10.7693,1.0256,
5.1282,4.6155,-1.0256,1.5383,-4.6155,13.3333,-13.8459,-14.8718,-9.2307,3.5896,1.0256,-1.5383,-8.2053,3.0769,
7.9487,7.9487,-5.3843,-0.25635,-5.3843,14.6157,-8.4614,-11.0254,-5.8975,4.8721,0.25635,0.25635,-3.333,6.4102,
11.2822,9.7437,-4.1025,-3.5894,-4.6152,12.8208,-7.6919,-9.2305,-2.0513,5.6411,2.0513,3.5898,-3.5894,7.1797,
11.5383,9.4871,-1.282,-4.8718,-3.8464,11.5383,-7.949,-8.4617,-1.7952,6.4099,3.3333,1.282,-5.3845,7.4358,
8.9744,9.9998,2.3074,-1.7952,-0.76929,13.5896,-5.8977,-8.9744,-4.8718,0.76929,1.7947,-5.3845,-7.4358,6.9231,
7.1797,6.667,7.1797,0,0,12.3076,-7.6924,-11.2817,-6.1538,-3.0767,0.51269,-11.2817,-6.6665,2.564,
12.564,11.0259,8.4614,0.76904,-4.3589,14.1025,-10.5127,-8.9741,-5.3848,-0.76904,0.76904,-3.3335,-5.3848,5.8975,
14.3594,14.3594,7.6924,-3.0767,-9.2305,13.8462,-4.6152,-7.1792,-3.0767,-2.0513,2.0513,7.1797,-4.6152,10.2568,
10.7693,12.3079,9.2307,-6.1536,-7.1794,12.8206,-1.5383,-12.8206,-4.1023,-1.5383,1.5383,3.0769,-4.1023,7.6926,
10.5129,7.949,11.0256,-1.7947,-4.8718,11.5388,-6.9231,-13.5896,-8.4612,3.3333,1.282,-1.282,-3.3333,6.4104,
9.7437,2.0513,5.6411,-2.564,-15.3848,1.5386,-8.2051,-10.769,-8.7178,0.5127,1.5386,-0.5127,-5.6411,5.1284,
9.7437,7.1792,3.5898,0.5127,-17.436,3.0767,-5.6411,-7.1797,-6.1538,-1.0259,-0.5127,1.5386,-7.6924,6.1538,
5.1284,8.2051,4.1025,0,-11.2822,8.2051,-9.231,-11.7949,-12.8203,0,-9.231,0,-12.3076,1.5386,
8.2053,9.7434,3.0769,-1.0256,-5.6409,7.6921,-5.6409,-12.3079,-12.8206,3.0769,-5.6409,1.0256,-8.718,1.0256,
6.6667,9.7434,-2.5642,1.0256,-7.6921,1.5383,-1.0256,-9.7434,-6.6667,1.5383,4.1023,-2.0515,-4.1028,5.1282,
-1.5386,6.1538,-3.5898,2.0513,-8.2051,0,-2.0513,-6.6665,-1.0254,2.0513,7.1797,1.0259,0,9.7437,
-6.9231,7.949,-3.3333,3.3333,-9.4871,4.8718,-5.8972,-6.9231,-4.8718,1.282,3.3333,9.4875,-1.282,9.4875,
-4.6155,12.8206,-0.51294,5.6409,-10.2561,8.718,-2.5642,-7.6921,-4.6155,0.51294,2.5642,4.6155,-2.5642,7.6921,
-3.8459,11.5383,4.8718,5.8972,-7.4358,8.4617,-2.3079,-7.9485,-2.3079,3.3333,2.3079,-5.3845,-2.3079,7.4358,
-5.3848,10.5127,9.4873,4.8716,-7.436,6.9229,-4.3589,-7.9487,-4.8716,3.8462,1.7949,-6.9229,-1.7949,8.9746,
-4.3591,13.5896,12.0515,7.4358,-12.0515,9.4871,-2.3079,-7.4358,-6.4104,2.3079,4.8718,-4.8718,-2.8206,10.0002,
-3.5896,14.3591,12.8206,10.7693,-11.7952,14.3591,-4.1028,-5.6409,-5.1282,4.6155,2.5642,-2.5642,-3.5896,9.7434,
-5.1284,9.2305,11.7949,8.2051,-10.2563,10.2563,-5.6411,-6.667,-1.5386,6.6665,0,-1.0259,0,8.2051,
-11.0254,8.4619,10,4.8721,-12.0513,5.3848,-4.8716,-9.4868,-1.2817,-0.25635,1.7949,-1.7949,0.25635,7.436,
-5.8972,14.1028,6.9231,7.949,-2.3079,16.1541,-6.9231,-9.9998,-6.9231,-1.282,2.3079,1.282,-5.3845,6.9231,
-0.25635,11.5386,4.8721,7.9487,3.3335,19.231,-7.9487,-13.5898,-10,0.25635,-3.8462,-3.8462,-8.4614,2.3076,
-2.3079,11.5383,11.5383,7.9485,1.7947,12.5642,-4.3591,-11.5383,-6.4104,0.76929,-0.76929,-8.9744,-4.8718,3.8459,
-7.9487,12.0513,10.5127,8.4614,-0.76904,11.5386,-4.3589,-10.5127,-8.4614,0.76904,4.3589,-5.3848,-5.3848,3.8462,
-4.8721,10.5127,7.9487,8.9741,1.2822,15.6411,-5.8975,-15.6411,-12.564,-0.76904,0.25635,-0.25635,-8.9746,0.25635,
3.8462,13.5898,17.1797,10.5127,6.4102,17.1797,-4.8716,-14.1025,-12.0513,-2.3076,-3.8462,-0.25635,-10,0.25635,
0.25635,12.0513,16.667,5.8975,2.3081,14.6157,-4.8716,-11.5381,-10.5127,-0.76904,-0.25635,-5.8975,-10,1.2822,
-4.6155,13.3333,10.2561,5.1282,-4.6155,13.8459,-5.1282,-9.2307,-7.6926,4.6155,5.6409,-6.1541,-5.6414,5.1282,
-4.1025,18.4614,11.7949,8.7178,-7.1797,13.3335,-4.1025,-6.1538,-3.0771,2.0513,3.0767,-4.1025,-2.0513,10.2563,
-3.5896,15.8972,11.282,2.051,-3.0769,12.3079,0.51294,-4.6155,-0.51294,-0.51294,2.5642,-4.6155,-1.0256,9.2307,
-4.6155,14.3591,7.6921,-1.5383,-3.5896,9.2307,0.51294,-4.6155,-0.51294,6.1541,8.2053,-3.5896,-2.051,8.718,
-6.1538,13.8462,10.2563,0,-11.7949,4.6152,-4.1025,-6.1538,0,7.1792,6.6665,-2.0513,-2.564,9.7437,
-4.3586,13.0769,12.0515,0.76929,-9.4871,9.4875,-3.8459,-5.8972,-1.7947,3.3333,3.8464,-1.7947,-0.76929,4.8718,
-3.0769,14.8718,4.6155,0.51294,-0.51294,12.8206,-0.51294,-6.6667,-6.6667,0.51294,7.6921,-2.0515,-0.51294,2.5642,
-3.8464,14.1023,2.3074,-1.7952,-5.8977,5.3845,0.76929,-7.949,-4.8718,1.7947,8.9744,-4.3591,-0.76929,7.9485,
-3.8462,12.5645,8.4614,-0.25635,-16.1538,1.7949,-1.7949,-5.8975,-3.8462,1.2822,3.8462,-3.8462,0.25635,11.0259,
-3.5898,12.3076,11.2822,2.564,-12.3076,4.6152,-1.5386,-7.1797,-5.1284,-1.5386,3.5898,-2.564,1.5386,7.1792,
-5.1284,15.8975,8.7178,7.1797,-11.2822,8.7178,0.5127,-9.7437,-7.1797,-0.5127,4.1025,-4.1025,-2.0513,5.6411,
-5.1282,14.8718,6.6667,9.7434,-14.3591,9.2307,-2.0515,-7.6921,-7.1794,1.5383,2.051,-6.6667,-1.5383,8.2053,
-6.1538,7.1797,4.1025,2.0513,-14.8721,5.1279,-6.1538,-7.1797,-5.6411,0,1.5386,-8.2051,0,5.1279,
-3.0771,10.2563,8.7178,0.5127,-6.6665,10.2563,-3.0771,-5.1284,-3.0771,2.0513,3.5898,-2.564,-0.5127,7.6924,
-3.0769,8.718,11.7952,-0.51294,-8.718,13.3333,-0.51294,-8.2048,-3.0769,0.51294,3.5896,-2.5642,1.0256,10.2566,
-7.436,2.8203,8.9746,-3.8462,-20.2563,6.4102,-0.25635,-10,-2.3076,0.25635,5.3848,-3.3335,1.7949,7.9487,
-4.3591,7.9485,7.9485,-2.8206,-15.6409,6.9231,-0.25659,-4.8718,0.25659,6.9231,7.4358,-0.76929,-0.25659,8.4617,
-4.6152,7.1792,3.0767,-7.1797,-12.3076,8.2051,-2.564,-6.6665,0.5127,6.1538,4.6152,-3.0771,-0.5127,7.1792,
-7.436,5.3848,-0.76904,-5.8975,-15.1284,7.436,-4.8716,-10,-0.76904,2.3076,6.4102,0.76904,2.3076,9.4873,
-6.6665,9.2305,0,-2.0513,-12.3076,7.1792,-4.1025,-12.8208,-1.0259,6.1538,6.6665,2.0513,0,11.2822,
-3.3333,14.6155,-0.76929,-2.3074,-3.3333,12.0515,0.76929,-13.5896,1.7952,8.9744,4.3591,-3.3333,-0.76929,10.5129,
-4.3591,17.1794,-3.3333,-0.76929,0.76929,20.7693,-0.76929,-7.9485,0.76929,4.3591,3.3333,-2.3079,-0.76929,11.0256,
-3.0769,13.3333,0.51294,3.0769,-7.1794,21.0256,-5.1282,-6.1536,-2.5642,3.0769,4.1028,-0.51294,-4.6155,9.2307,
3.5898,13.3335,5.6411,3.5898,-10.769,15.8975,-8.2051,-12.8203,-7.1797,0,0,-6.6665,-10.2563,4.1025,
7.949,20.2566,1.7947,4.8718,2.3079,20.7693,-3.8459,-11.0256,-8.9744,-4.3591,-1.7947,-9.9998,-9.9998,3.3333,
8.4617,18.718,0.25659,4.8718,6.4104,19.2307,-2.8206,-11.5383,-5.3845,-4.3591,-0.25659,-10.5129,-8.9744,5.3845,
12.0513,15.1279,6.9229,-0.25635,-1.2822,12.564,-4.3589,-15.6411,-2.3076,2.8203,0.25635,-2.3076,-12.5645,7.9487,
6.4106,9.4873,3.3335,-12.564,-6.9229,9.4873,-4.3589,-17.1792,-9.4868,1.7949,-1.7949,2.3076,-15.6406,3.3335,
2.051,12.3079,-1.0256,-8.718,2.051,15.3845,-2.5642,-11.7947,-11.7947,-0.51294,0.51294,3.5896,-10.7693,2.5642,
3.3333,14.6155,-2.3079,2.3079,0.76929,18.2053,-5.8972,-11.5383,-7.9485,-0.76929,-3.3333,3.8464,-7.9485,2.3079,
4.6152,13.333,0,0,-10.2563,16.9229,-6.667,-13.8462,-6.1538,0.5127,-4.1025,0,-10.7695,3.0767,
9.7437,18.4614,8.2051,-2.0513,-6.6665,16.9229,-2.0513,-11.2822,-6.6665,2.564,2.0513,-4.1025,-9.231,7.6924,
10.5127,17.6924,12.564,0.25635,-3.8462,11.5386,-0.25635,-13.5898,-8.4614,-1.7949,1.2822,-1.7949,-6.9229,4.8716,
12.0513,17.6924,13.0771,6.9233,-2.3076,13.0771,-1.2822,-11.0254,-11.5386,-5.8975,-1.2822,1.2822,-6.9229,3.8462,
14.6155,21.7947,13.0769,7.9485,1.282,17.1794,-1.7952,-6.4104,-10.5129,-3.8464,-1.282,-5.3845,-8.9744,8.4617,
14.1025,18.7178,15.1284,0.25635,-0.25635,10.5127,1.2822,-11.5386,-2.3076,-0.25635,-1.2822,-3.8462,-5.8975,6.9229,
13.0769,14.1028,14.1028,-4.8718,-4.8718,5.8972,0.76929,-17.1794,-2.8206,-1.282,-0.76929,1.7947,-2.3079,2.3079,
13.0771,11.0259,7.9487,-5.3843,-5.3843,7.436,0.25635,-11.5386,-4.8716,-0.76904,5.3848,-3.8462,-0.25635,6.4102,
6.4104,12.5642,2.8206,-6.4099,-1.7947,6.9231,0.76929,-4.3586,-4.3586,-0.76929,4.3591,-4.8718,-0.76929,10.5129,
2.8206,17.1794,8.4617,-4.8718,-0.25659,9.9998,-1.282,-6.9231,-6.4104,-2.3079,0.25659,4.3591,-2.3079,9.4871,
2.0513,9.231,7.6924,-7.1792,-9.7437,8.2051,-6.1538,-17.9487,-10.2563,0,0,1.0259,-3.5898,5.6411,
4.6152,7.6924,6.1538,-3.0771,-19.4873,4.6152,-6.6665,-17.436,-7.6924,6.1538,2.0513,-3.5898,-2.0513,7.6924,
6.1536,12.8206,7.6921,1.0256,-21.5388,1.5383,-4.6155,-13.8464,-8.2053,-1.0256,1.0256,-4.6155,-5.1282,5.6409,
13.8462,20.5127,14.3589,5.1279,-6.5388,12.3076,0,-7.6924,-12.3076,-2.564,0,-2.0513,-4.1025,5.6411,
9.7434,14.8718,13.3333,-1.5383,1.5383,12.8206,-1.5383,-7.1794,-15.8977,1.5383,-6.1541,-4.6155,-4.1028,8.2053,
6.1538,4.6152,11.7949,-6.6665,-13.3335,3.0771,0.51269,-10.769,-6.6665,4.1025,-0.5127,-8.2051,-2.564,8.2051,
10.5132,7.9487,8.9746,0.25635,-14.1025,6.9233,-0.25635,-12.564,-3.333,-1.2817,2.3076,-6.9229,-3.8462,3.3335,
12.8208,18.9746,13.8462,10.2563,0.89746,16.9233,-1.5386,-9.2305,-6.1538,-3.0767,-3.0767,-4.6152,-2.564,4.6152,
9.7437,17.9487,16.9229,7.1797,0.5127,15.3848,-1.5386,-10.2563,-7.1797,-0.5127,-5.1284,-7.6924,-3.5898,8.2051,
11.2817,12.8203,13.333,0,-4.1025,13.333,0,-12.3081,-4.6157,3.0767,-2.5645,-6.667,-5.6411,8.7178,
6.6665,8.7178,11.2822,-4.1025,-5.6411,10.2563,2.0513,-14.3589,-2.0513,2.564,-5.6411,-5.6411,-3.5898,7.6924,
6.1538,9.231,15.3848,0,-5.6411,8.2051,2.0513,-10.2563,-3.0767,-1.0254,-7.1792,-5.6411,0,11.2822,
8.4614,11.0254,9.4873,0.76904,-8.4614,12.0513,1.2822,-5.3848,-5.8975,-1.2822,-1.2822,-2.8203,-0.76904,11.5386,
1.2822,10,0.76904,-6.9229,-14.6152,7.436,-0.76904,-7.436,-3.8462,1.7949,1.7949,-1.2822,-1.2822,9.4873,
1.2822,8.9746,6.4102,-6.9229,-15.1279,2.3076,-0.76904,-8.4614,-0.25635,3.3335,-1.2817,-2.3076,0.25635,12.5645,
9.9998,5.3845,9.4871,-3.8464,-16.1541,7.9485,1.282,-11.0256,-2.8206,2.8206,-2.3079,-4.8718,-1.282,11.5383,
10.5129,8.9744,5.8972,-0.25659,-16.6667,12.5642,0.25659,-12.5642,-7.4358,3.8459,-3.3333,-4.3591,-5.8972,7.9485,
6.6665,11.7949,4.1025,2.0513,-16.4106,4.6152,-2.0513,-11.2822,-3.5898,4.6152,-5.1284,-7.1797,-5.6411,7.1792,
7.1797,9.7437,3.5898,-1.0254,-21.0254,-2.564,-2.0513,-11.7949,0,2.564,0,-6.6665,0,5.6411,
3.5896,10.2561,0.51294,-6.1541,-30.7693,-1.0256,-4.6155,-12.3079,-3.5896,2.5642,6.1536,-0.51294,2.051,4.6155,
0.5127,8.2051,2.564,-9.7437,-34.3591,-3.0771,-1.5386,-10.2563,-0.5127,6.1538,6.6665,-1.0259,7.1792,7.1792,
5.8975,2.3076,3.8462,-11.5386,-28.4617,-9.4873,-0.76953,-11.5386,0.25635,2.8203,-0.25635,-5.8975,5.8975,6.4102,
10.7693,6.1541,3.5896,-6.1541,-18.9744,-4.6155,-1.0256,-7.6921,-1.0256,3.5896,1.0256,-1.0256,2.5642,9.7434,
6.9229,7.436,1.2822,-4.8716,-18.7178,-1.7949,-0.25635,-5.8975,-2.8203,4.3589,-0.76904,0.25635,3.3335,12.0513,
2.564,3.5898,2.0513,-8.7178,-25.6411,-6.1538,0,-4.6152,-4.1025,1.5386,-4.6152,0,7.1797,12.8203,
-2.8208,-3.3335,4.8716,-15.6411,-30,-14.1025,0.25635,-3.3335,-0.25635,7.436,3.8462,2.8203,9.4873,11.5386,
-6.6667,-4.6155,3.0769,-14.8718,-29.7437,-13.8459,-1.5383,-11.282,1.5383,11.7947,5.1282,2.5642,5.6409,9.2307,
-1.2817,4.8721,2.3076,-4.3589,-24.8718,-3.333,-2.3076,-13.5898,0.25635,8.4614,-0.25635,3.3335,4.3589,13.5898,
3.8459,6.4099,3.8459,-2.8206,-22.8206,-4.3591,-5.8977,-7.949,-2.8206,2.3074,-0.76929,0.76929,2.8206,12.051,
9.7437,6.6665,9.7437,0,-15.8975,-5.1284,-4.6152,-3.5898,-3.5898,3.0767,2.0513,-1.0259,0,11.2817,
7.9487,4.3589,10,-0.25635,-17.1797,-5.3848,0.25635,-13.0771,-6.4102,1.2817,-0.76953,-4.8721,0.25635,10.5127,
4.8718,3.8459,3.8459,-5.385,-23.8464,-7.4363,2.3074,-15.6414,-5.8977,1.282,-1.282,-6.9231,7.9485,9.9998,
3.8464,6.4104,0.25659,-8.9744,-23.8462,-4.3591,-0.25659,-6.9231,-0.25659,4.3591,4.8718,-2.3079,12.0515,13.5896,
0.51294,3.5896,-4.1028,-12.3079,-22.5642,-0.51294,-2.0515,-11.282,1.0256,4.6155,6.1536,-1.5383,5.6409,11.7947,
6.1541,5.1282,-2.5642,-5.1282,-17.9485,3.5896,-1.0256,-11.7947,-4.1023,5.1282,5.1282,-0.51294,0.51294,10.7693,
10.5129,2.3079,-0.25659,-4.8718,-13.5896,2.3079,-3.8459,-10.0002,-7.9485,1.7947,0.25659,-2.8206,0.25659,8.9744,
8.7178,2.564,1.5386,-9.231,-15.3848,4.1025,-4.1025,-7.1797,-1.5386,3.0771,-3.5898,-1.5386,4.1025,12.3076,
7.9485,7.4358,-1.282,-11.0256,-23.3333,6.9231,-4.8718,-4.3591,-1.282,6.4104,-4.3591,1.282,3.8459,15.1282,
12.0515,4.8718,-6.9231,-12.5642,-23.3333,3.8464,-3.3333,-8.4617,-3.3333,4.3591,3.3333,-1.282,1.282,11.5383,
15.6411,3.8462,-4.3589,-5.3848,-11.0259,3.8462,0.25635,-9.4873,-1.7949,3.8462,5.3843,-1.7949,-0.25635,12.564,
15.6411,4.8716,0.76904,-2.8203,-10.5127,0.76904,0.76904,-6.9229,-0.76904,3.8462,-1.2822,-2.3076,-2.3076,12.0513,
16.4102,5.1284,1.0259,-7.1797,-16.4102,-3.0767,2.564,-7.1797,-0.51269,0.5127,1.5386,-1.5386,-1.5386,10.769,
17.949,5.6409,3.0769,-2.051,-9.7434,1.0256,-1.5383,-11.282,-3.5896,-1.0256,3.5896,-1.0256,2.5642,11.282,
20.7693,6.9231,8.4617,6.9231,-8.9744,6.9231,-5.3845,-11.0256,-7.9485,-1.282,-5.8972,-6.9231,1.282,7.9485,
27.1794,16.4104,16.9231,15.3845,-8.2053,15.8972,-1.0256,-2.0515,-7.1794,0.51294,-7.6921,-6.1541,-0.51294,10.2566,
23.5896,15.3845,11.282,9.7434,-6.6667,13.3333,1.0256,-4.1023,-5.1282,-1.0256,-3.5896,-4.1023,-2.5642,12.3079,
18.9746,7.6924,5.1284,0,-10.2563,6.1538,0,-7.6924,-3.5898,-3.5898,-2.0513,-2.0513,0,10.769,
14.6152,6.9229,2.8203,-6.9233,-15.1284,-0.25635,-0.25635,-5.3848,-4.3589,-0.76904,1.2822,0.25635,1.7949,9.4873,
3.5898,3.0771,-3.5898,-16.9229,-20,-9.7437,0,-8.7178,-1.0254,3.5898,8.7178,0,4.1025,10.769,
0,-1.5386,-4.6157,-18.4619,-21.0259,-9.7437,0,-9.7437,4.1025,3.0767,9.2305,3.0767,6.6665,13.8457,
2.0513,-5.6406,-4.6152,-12.8203,-20.5127,-4.1025,0,-7.1792,3.0771,0,1.5386,8.7183,3.0771,11.2822,
0.25635,-1.2817,-5.3843,-9.4873,-17.6924,-0.25635,0.25635,-2.8203,-0.25635,3.8462,1.7949,10,3.3335,10,
-3.3333,5.3845,-3.8459,-8.4617,-18.718,2.3079,-3.3333,-2.3079,-2.8206,4.8718,4.8718,3.3333,3.8459,13.5896,
-1.2822,2.3076,-0.25635,-8.4614,-20.2563,0.25635,-1.2822,-6.9233,0.25635,0.25635,6.9229,-0.25635,2.8203,13.0767,
1.5386,-3.5898,0.5127,-13.3335,-14.8721,-6.667,0,-11.2822,0,-0.5127,6.6665,5.6411,2.564,10.2563,
-1.0254,0,0,-15.3848,-11.2822,-4.6152,0,-8.2051,1.5386,5.6411,6.1538,8.2051,6.6665,15.8975,
-7.6926,0.51294,-3.0769,-16.9231,-14.8718,-2.0515,2.051,-10.7693,5.1282,5.1282,5.6409,-0.51294,8.2048,12.3074,
-5.3848,1.2822,-0.76904,-14.1025,-11.5386,-4.3589,0.25635,-12.0513,3.3335,3.3335,7.436,-0.25635,5.8975,7.436,
-1.5386,0.5127,2.0513,-11.2822,-8.2051,-7.6924,-2.0513,-9.231,-0.51269,1.0259,8.2051,5.1284,4.1025,10.2563,
-2.8208,2.3076,0.25635,-10.5132,-9.4873,-4.8721,1.2817,-10,-0.25635,-1.2822,7.9487,2.8203,3.333,10,
-0.76929,5.8972,0.76929,-15.1282,-6.4104,-1.7952,1.282,-12.0515,1.282,-0.76929,6.4099,-2.3079,3.3333,5.8972,
0.76904,2.3076,1.2822,-16.6665,-5.8975,-4.8716,-0.76904,-10.5127,-0.76904,1.2822,4.3589,-2.8203,3.3335,6.9229,
-4.3591,-0.25659,0.25659,-10.5129,-10.0002,-1.282,0.25659,-5.3845,-0.76929,1.7947,3.3333,0.76929,3.3333,9.9998,
-12.564,-0.76904,-0.25635,-14.6152,-9.4873,1.2822,0.25635,-4.8716,3.3335,-0.25635,4.8716,2.3076,3.3335,8.9741,
-11.2822,0,-0.51318,-15.3848,-2.5645,0,-0.51318,-7.6924,2.564,2.564,4.1025,1.0254,1.5381,11.7944,
0,6.1538,1.5386,-3.0767,3.0771,5.6411,-1.5381,-7.1792,-0.51269,4.1025,-0.51269,0,-0.51269,15.3848,
0.51269,6.1538,0,0,-5.1284,4.6152,-3.0771,-6.6665,0,0,-4.1025,-3.0771,0,9.2305,
-5.1282,5.6409,-2.5642,-2.5642,-11.7952,2.051,-3.0769,-4.6155,2.5642,2.051,1.0256,-1.0256,1.5383,11.7947,
-4.1023,6.1541,-4.6155,-1.5383,-10.2566,7.1794,-3.0769,-8.2053,4.1028,4.1028,4.1028,1.5383,-2.051,13.3333,
-1.0256,10.7693,-3.0769,1.0256,-10.7693,9.7439,-3.5896,-7.6921,3.5901,2.5642,-2.051,2.0515,-2.051,9.7439,
-1.7949,13.0767,-2.8203,-0.76904,-13.5898,1.2822,-1.2822,-2.8203,2.8203,0.76904,-3.3335,1.2822,2.3076,10,
-0.5127,7.6924,-5.1279,-4.6152,-12.3076,0,0.51269,-4.1025,3.5898,0,2.564,-2.0513,3.5898,11.7949,
1.0256,10.7693,-2.0515,-0.51294,-9.2307,11.282,-2.0515,-5.1282,1.0256,-1.5383,2.051,-1.0256,0.51294,11.7947,
0,14.8716,-1.5386,4.1025,-9.7437,13.3335,0,-6.6665,-1.5386,-4.6152,0.51269,2.0513,0,8.2051,
-2.0513,13.3335,-1.0259,0,-9.7437,9.7437,1.0254,-6.6665,1.0254,-2.564,4.1025,-0.5127,0,8.2051,
-3.3335,12.0513,4.8716,-0.25635,-8.9741,10,-2.3076,-6.4102,-0.25635,0.25635,2.8203,0.76904,-6.4102,9.4873,
-2.8206,11.0256,8.4617,6.4104,-11.5383,10.5129,-0.76929,-6.9231,-3.3333,-1.282,0.76929,6.9231,-5.8972,7.949,
-0.51294,10.2566,9.2307,9.7439,-12.3074,7.1794,0.51294,-6.6667,-5.1282,-4.6155,-1.0256,1.5383,-3.0769,8.2053,
-0.25659,11.0256,9.4871,11.0256,-12.0515,0.76929,1.7947,-5.8972,-1.282,-0.76929,0.25659,-2.8206,-0.25659,10.5129,
-7.436,7.9487,4.8716,5.3843,-23.3335,-4.3589,0.25635,-9.4873,-1.2822,-0.25635,2.8203,-0.25635,1.2817,8.9741,
-6.6665,7.1797,9.231,4.6157,-24.1025,0,0,-8.7178,-5.6406,-2.564,1.0259,0,2.0513,8.2051,
-0.5127,5.6411,12.3076,5.6411,-22.0513,2.0513,0.51269,-5.1279,-6.1538,-3.0767,-3.5898,-5.1279,1.5386,8.7178,
1.0256,9.2307,5.6409,7.6921,-24.6155,2.5642,-3.5896,-5.6409,-2.5642,-1.5383,-2.0515,-1.0256,2.051,11.7947,
-1.282,13.5896,1.282,7.4358,-25.8975,1.282,-5.8977,-7.4358,0.25659,-0.25659,-0.25659,-0.25659,5.3845,15.6409,
-0.25635,12.0513,5.3848,4.3589,-22.8203,-1.2817,-0.25635,-11.0254,3.3335,0.25635,-2.3076,-3.333,6.9233,9.4873,
-1.5386,8.7178,2.564,0.5127,-22.564,-0.51269,0.5127,-12.8203,2.0513,-0.51269,-5.6411,-2.0513,3.5898,1.5386,
-2.3076,8.4614,0.76904,-2.3076,-24.8721,0.25635,-0.76953,-5.8975,2.3076,1.7949,-3.8462,-0.25635,2.8203,9.4868,
-1.0259,9.2305,0.5127,-5.6411,-17.9487,0,-2.0513,0.5127,1.0254,0,-1.5386,-2.5645,0,16.4102,
-3.5898,6.6665,-3.5898,-5.1284,-10.769,0,-0.5127,2.0513,2.0513,1.5386,0,0,3.5898,16.4102,
-10.7695,1.0254,-9.7437,-7.1797,-21.5386,-6.1543,0,-1.0259,3.0767,1.0254,0,3.0767,6.1538,15.3843,
-4.8716,6.9233,-8.9741,-3.333,-23.333,2.8208,0.25635,-1.2817,-0.25635,-1.2817,1.7949,3.8462,3.3335,13.0771,
1.0259,7.6924,-5.6411,1.0259,-13.8462,17.436,-2.0513,-7.1792,-4.6152,-4.1025,0.51269,-0.5127,0.51269,5.6411,
0.51294,5.6409,-2.0515,1.5383,-8.718,14.8718,-0.51294,-8.2053,-1.0256,0.51294,-2.5642,-2.0515,2.051,10.2561,
0,7.6919,-5.6411,-4.6157,-15.3848,7.6919,0,-2.0513,1.5381,2.0513,-5.6411,0,1.5381,18.4614,
2.3076,9.4868,-8.9746,-2.3076,-22.8208,10,-0.25635,-2.8208,0.25635,-2.3076,-3.3335,0.76904,2.8203,15.6406,
-0.5127,12.3076,-6.6665,7.6924,-24.1025,11.7949,-3.0767,-3.0767,0.5127,-1.5386,-0.5127,1.5386,6.1538,10.769,
-7.6921,8.718,-9.2307,2.5642,-30.2563,4.6155,-5.1282,-5.6409,2.0515,1.0256,-2.5642,-1.0256,4.1028,4.6155,
-6.6665,9.231,-9.7437,-1.5386,-29.7437,3.5898,-1.5386,-6.6665,4.6152,5.1284,-3.0771,3.0771,1.5386,5.6411,
-6.4102,12.0513,-8.9741,-3.3335,-26.9231,2.8208,-0.25635,-1.2822,3.8462,3.8462,0.25635,6.9233,-0.25635,10.5127,
-12.8206,8.718,-11.282,-11.7952,-33.8462,1.0256,-2.0515,-0.51294,3.5896,0.51294,2.051,3.5896,-1.5383,7.6921,
-5.8975,9.4873,-10.5127,-6.9233,-36.1538,6.4102,-2.3076,-1.2822,2.8203,3.3335,0.76904,5.8975,-0.76904,10,
-0.76953,7.9487,-10.5132,-1.2822,-32.5642,3.333,-1.2822,-4.3594,-0.25635,2.8203,1.2817,8.9741,0.25635,14.1025,
-7.9487,4.3589,-10,-4.3589,-31.0256,-0.25635,-0.25635,-5.3848,0.76904,1.7949,0.25635,5.3848,2.8203,12.0513,
-11.0254,6.4102,-8.4614,-4.3589,-33.5896,1.7949,-1.7949,-5.3848,2.3076,3.8462,-3.3335,2.3076,1.7949,10,
-7.949,7.4358,-8.9744,-3.3337,-33.5898,0.76929,-2.8206,-6.9231,2.8206,2.8206,2.8206,3.8459,-0.76929,7.9485,
-6.9229,5.8975,-8.4614,-3.8462,-28.9744,0.25635,-4.8716,-5.3848,2.3076,0.76953,7.9487,7.9487,-0.25635,8.4614,
-9.4873,2.8203,-8.4619,-4.3594,-29.4873,-0.25635,-5.3848,-2.3076,3.333,2.8203,3.8462,6.4102,0.25635,11.0254,
-9.4873,2.3076,-13.0771,-5.3848,-30.5129,0.76904,-3.3335,-0.25635,1.2817,2.8203,0.25635,2.8203,-2.3076,11.5381,
-7.6924,9.2305,-11.7949,-1.5386,-20,5.1279,-1.0259,1.5381,-1.0259,1.5381,0,3.5894,0,15.897,
-5.6411,8.7178,-7.6924,-2.5645,-16.4102,5.1279,0,-3.5898,0,2.564,-0.5127,5.1279,2.0513,15.8975,
-3.3335,3.8462,-9.4873,-4.3594,-17.1797,6.4102,-0.76953,-5.8975,2.3076,4.8716,0.25635,7.9487,-0.25635,14.1025,
-10.0002,1.282,-14.1028,-8.9744,-16.1541,4.8718,-3.3333,-3.8464,0.76929,1.7947,1.282,4.8718,-0.76929,12.5637,
-11.5386,2.3076,-11.5386,-10,-15.6411,2.3076,-2.8203,-3.8462,-1.2822,1.2822,3.3335,1.2822,3.3335,12.0513,
-8.9744,4.8718,-6.9231,-8.4617,-15.6409,4.8718,-2.3079,-1.282,-1.282,4.8718,1.282,4.3591,1.7947,10.5129,
-13.0769,3.3333,-8.9744,-9.4871,-19.2307,5.3845,-1.282,0.25659,2.8206,4.8718,-0.25659,5.3845,-1.7947,9.4871,
-7.4363,5.3845,-11.0256,-6.9231,-15.6414,8.9744,-1.7952,-2.8206,4.8718,3.3333,1.282,3.3333,-1.282,10.5125,
-1.5383,3.5896,-11.282,-9.7439,-16.9231,5.6409,-6.6667,-9.2307,4.6155,3.5896,4.6155,1.5383,-1.5383,6.1536,
-3.0769,1.0256,-6.1536,-10.7693,-21.5383,-1.0256,-3.5896,-5.6409,10.2566,8.2053,11.282,7.1794,2.0515,8.718,
-3.3335,3.8462,-9.4873,-6.4102,-20.769,3.8462,-4.8721,-3.8462,5.3848,3.3335,0.25635,4.8716,-0.25635,7.436,
5.8972,10.5129,-11.5383,-0.25659,-18.2053,18.8462,-4.3591,-3.3333,2.3079,0.25659,-7.4358,-0.25659,0.25659,4.3591,
4.6155,10.2566,-12.8206,-4.1028,-27.6924,23.5896,-5.1282,-1.5383,1.0256,1.5383,-2.051,-0.51294,0.51294,3.5896,
-1.0256,8.718,-13.3333,-6.1536,-35.3845,17.949,-6.1536,-1.5383,1.5388,2.0515,1.0256,4.6155,-2.051,5.6414,
4.8716,8.4614,-11.0259,-2.3076,-31.0256,14.1025,-4.8721,-1.2822,2.8203,1.2822,-1.7949,3.8462,-1.7949,4.8716,
4.3589,8.9741,-12.0513,-3.3335,-33.5898,15.1279,-6.4106,-0.76953,0.25635,3.333,-0.25635,4.8716,-0.76953,3.8462,
-6.4104,4.8718,-17.1794,-13.0769,-48.5898,13.5896,-7.4358,-4.8718,0.76929,3.3333,3.3333,3.3333,-0.76929,2.3079,
-4.3586,8.4617,-13.5896,-8.4612,-48.4614,13.5901,-3.3333,-3.8459,3.8464,3.3337,0.76929,-0.76929,1.2825,4.8718,
3.3333,13.0769,-9.9998,2.8206,-37.1794,17.6926,-4.3591,-0.76929,-0.76929,0.76929,-1.7947,-0.76929,1.282,2.8206,
5.8975,11.5386,-10.5127,-1.2817,-34.1025,16.667,-7.436,0.25635,-2.3076,-0.76904,1.7949,-0.25635,1.2822,0.25635,
6.9231,13.0769,-8.9744,-6.9231,-40.7693,11.0256,-6.9231,-0.25659,1.282,0.25659,-1.282,-1.282,0.25659,3.3333,
7.9485,9.9998,-9.4871,-4.3591,-44.8718,12.5642,-4.3591,-0.76929,2.8206,0.76929,-3.8464,1.7947,-1.282,5.3845,
2.5645,7.1797,-14.8716,-4.6152,-42.564,13.8462,-5.6411,-2.0513,1.0259,0,0,3.5898,-1.0254,3.0771,
1.0259,6.667,-14.8716,-9.2305,-43.5896,5.1284,-8.7178,-4.6152,0,1.0259,1.0259,0,0,1.5386,
4.8718,1.282,-13.0769,-11.0256,-50.0002,-3.3337,-6.4104,-10.5129,2.8206,2.3074,4.8718,1.282,-1.282,1.7947,
3.333,0.25635,-14.1025,-7.9487,-47.436,-0.25635,-2.8208,-9.4873,2.8203,2.3076,8.9741,6.4102,-1.2822,3.8462,
4.8718,2.8206,-10.5129,-7.4358,-39.2307,5.8977,-6.9231,-3.8459,-1.7947,-0.76929,5.8977,1.7952,0.76929,0.76929,
14.1025,12.0513,-0.25635,-1.2822,-30.5129,15.6411,-8.4614,-0.76904,-3.3335,-2.3076,1.7949,2.8203,1.2822,0.25635,
14.6152,15.1279,2.3076,6.9229,-26.4102,21.7949,-8.4614,-2.3076,-7.9487,-3.8462,-4.3589,5.3843,-6.4102,2.8203,
14.6155,11.0256,0.76929,9.9998,-25.8972,20.2566,-5.8972,-1.7947,-2.8206,-1.7947,-0.76929,1.7947,-4.8718,4.3591,
15.1284,10,0.25635,6.4102,-28.4617,13.5898,-7.9487,-0.25635,-0.25635,-0.76904,2.8203,-1.2822,-1.2822,1.7949,
12.3076,9.231,0,4.1025,-29.7437,9.231,-7.6924,-4.1025,-5.1279,-1.0254,1.5386,0,-4.6152,2.0513,
12.3076,6.1538,0,4.1025,-27.6924,9.231,-6.6665,-7.1792,-5.1279,-2.564,0,0.5127,-7.1792,1.5386,
14.8716,6.6665,0.5127,2.0513,-27.6924,11.7949,-8.2051,-4.1025,0,-0.5127,0,-0.5127,-1.5386,3.5898,
10.5129,6.4104,-1.282,-0.25659,-31.5386,8.9744,-8.9744,-3.3333,1.282,0.25659,-1.282,-0.25659,0.76929,4.8718,
12.8206,8.718,-2.0515,6.1536,-28.2053,7.1794,-7.6926,-2.5642,-2.0515,-1.0256,1.5383,1.0256,-4.6155,3.5896,
18.7183,11.5386,-0.25635,7.9487,-26.9231,11.5386,-7.436,-1.2817,-1.2817,-1.7949,4.3589,0.25635,-4.3589,3.8462,
15.8975,6.1538,0.5127,1.0254,-31.2822,9.7432,-6.667,-3.0771,0,-1.5386,-3.0771,-0.51318,0,1.5381,
16.1538,3.8462,2.3076,0.25635,-26.9233,6.4102,-5.8975,-2.8208,-0.76953,0.25635,-7.436,-0.25635,-3.3335,5.3843,
14.8718,4.6155,3.5896,1.5383,-31.7949,5.1282,-6.6667,-2.5642,-1.0256,1.0256,-3.0769,-1.0256,-4.6155,10.7693,
7.1797,5.6411,-0.5127,-0.5127,-41.0254,6.1538,-9.2305,-0.5127,0,2.5645,-1.0254,0.51318,0,7.1797,
4.8721,1.7949,-11.5386,-9.4873,-29.4871,0.76953,-8.9741,-0.76904,0.25635,0.25635,1.2822,3.3335,-1.7949,-0.25635,
12.0513,3.8462,-10.5127,-12.0513,-17.6924,-0.25635,-2.8203,-0.76904,1.2822,0.25635,7.9487,2.8208,-1.2817,2.8208,
16.9229,10.2563,-0.51318,-6.1543,-24.1028,8.2051,-3.0771,-3.0771,0,2.564,3.0767,0,-2.0513,7.1792,
19.2305,8.4614,3.333,-0.25635,-23.8462,12.0513,-6.9233,-3.3335,0.25635,2.8203,-2.3076,-1.2822,-4.3589,1.2817,
17.9487,7.6924,-1.5386,2.0513,-17.9487,8.2051,-7.6924,-1.0254,-1.5386,0,3.0771,0.51269,0,-0.5127,
8.2051,9.7437,-9.7437,0,-22.564,4.1025,-5.6411,-4.1025,-3.5898,-4.1025,1.5386,3.0771,0,4.1025,
4.3591,11.0256,-6.4104,-1.7947,-22.8206,6.9231,-0.76929,-2.3074,0.76929,1.282,-1.282,4.8718,-0.76929,9.4871,
1.0259,3.5898,-7.1792,-4.6152,-28.7178,2.5645,-8.2051,-2.0513,-2.564,0.51318,0,0,0,3.5898,
0.25635,2.3076,-11.0259,-1.7949,-33.0771,-1.7949,-7.436,-1.7949,0.76904,-0.25635,6.4102,7.4355,4.8716,3.333,
-6.4104,5.8977,-14.6155,-3.8459,-28.9744,2.8206,-5.3845,-1.7947,3.8464,0.76929,1.7952,14.1028,-0.76929,6.4104,
-13.5898,4.3589,-10.5127,-8.9746,-31.0256,5.3848,-8.9746,0.25635,3.8462,3.3335,-0.25635,6.9229,-1.2822,5.8975,
-20.7693,-0.76929,-10.0002,-11.5383,-43.3335,-4.3591,-7.4358,0.76929,6.9231,5.8972,5.8972,2.3079,7.4358,4.8718,
-24.3591,0.25635,-10.5127,-7.9487,-43.8462,-8.4614,-4.3589,-0.25635,7.436,5.8975,8.9741,10.5127,6.4102,8.9741,
-22.564,0,-9.7437,-3.0767,-38.9744,-3.5898,-5.6411,0,7.1797,3.0771,4.6152,8.2051,2.0513,6.1538,
-21.7949,0.25635,-7.9487,-0.25635,-38.2053,4.3589,-6.4106,-0.76953,6.4102,3.333,-0.25635,0.76904,2.3076,2.8203,
-25.3848,2.8206,-3.3333,-1.282,-41.2822,1.282,-10.5129,-5.385,-2.3079,2.3074,1.282,1.282,3.3333,1.7947,
-18.718,5.8972,0.76929,-0.76929,-35.6411,-3.8459,-10.5129,-3.3333,-2.8206,0.76929,2.3079,2.8206,7.4358,2.3079,
-13.5896,10.5129,-0.25659,2.8206,-25.8972,0.25659,-8.4617,0.25659,-0.25659,2.3079,-6.4104,-0.25659,4.8718,4.3591,
-22.8203,7.9487,-0.25635,0.76953,-30.5127,1.7949,-8.9741,-2.3076,0.25635,3.8462,-3.333,-1.2817,1.2822,5.3848,
-25.1279,2.0513,-0.51269,-5.6411,-35.8975,-3.5898,-9.231,-4.6152,1.0259,0.5127,2.564,1.0259,1.0259,3.0771,
-11.5386,6.9233,2.8208,-2.3076,-20.8975,-0.76904,-5.3848,0.25635,3.8462,-0.25635,-5.8975,3.8462,2.8208,3.8462,
-10.2563,9.231,7.1797,0,-14.3589,1.0259,-3.5894,-3.0767,1.5386,0,-8.7178,-1.5381,3.0771,2.0513,
-13.8462,8.2051,8.7178,0,-15.3848,0,-5.6411,-7.6924,-1.0254,1.0259,3.5898,-4.6152,0.5127,2.564,
-7.4358,8.4617,4.3591,-0.25659,-10.0002,5.8972,-4.8718,-4.8718,4.3591,0.25659,5.3845,-0.25659,-0.25659,8.4617,
-3.3333,8.9744,-2.3079,-1.282,-3.8464,8.9744,-0.76929,-4.3591,1.7947,1.7947,-1.282,0.76929,1.7947,9.9998,
-3.0769,12.3079,-4.1028,2.5642,2.5642,10.7693,-1.5383,-3.5896,-3.0769,4.1023,-1.0256,-2.0515,1.0256,6.1536,
-9.2305,12.3076,-1.0254,5.6411,-9.2305,8.7178,-5.1279,-1.0254,4.1025,0.51269,2.0513,-2.564,-0.5127,3.0771,
-16.4104,11.282,-2.5642,3.0769,-24.2305,3.5896,-8.2053,-0.51294,5.6409,-3.0769,-0.51294,0.51294,1.5383,6.1536,
-7.9487,7.436,-8.4614,-1.2822,-10,3.3335,-5.8975,-1.7949,1.7949,0.25635,-0.25635,3.8462,4.3589,10,
-1.0254,2.5645,-7.1792,-6.6665,5,-2.0513,-1.0254,-3.5894,2.0513,0,2.5645,2.0513,0,6.1538,
-0.25635,8.9746,0.25635,-4.8716,13.0771,-9.4873,-0.76904,-1.2817,4.3589,-1.2817,1.2822,1.2822,-1.7949,2.8208,
-0.5127,9.7437,0,-4.1025,7.6924,-15.3848,0,-3.0771,4.1025,-1.0259,1.0254,0,2.0513,3.0767,
-2.0513,4.1025,-3.5898,-2.564,8.2051,-14.8721,0.5127,-4.1025,2.0513,-0.5127,3.5898,-0.5127,4.6152,4.6152,
-8.718,2.051,-2.0515,-0.51294,8.718,-13.8464,0.51294,-1.5383,2.051,-2.0515,1.0256,-2.0515,3.0769,0.51294,
-10.2563,3.0771,0,-5.1279,12.8208,-16.4102,4.1025,-6.6665,6.1538,-2.564,1.0259,-3.0767,5.6411,0,
-12.5642,0.76929,-4.8718,-11.5383,9.4871,-20.7693,3.3333,-8.9744,2.3079,-1.7947,5.3845,-0.76929,6.4104,3.3333,
-15.8972,-4.1023,-10.7693,-12.8206,1.0256,-18.9744,3.5901,-4.1023,-1.0256,1.5388,5.6414,1.0256,6.1541,4.1028,
-15.3848,0,-7.6924,-7.1797,4.1025,-12.8208,1.0254,-7.1797,1.5381,0,-3.0771,0.5127,4.1025,2.0513,
-14.3591,4.6155,-0.51294,-1.0256,5.1282,-13.3333,-3.0769,-8.718,2.051,0.51294,-3.5896,0.51294,2.5642,3.5896,
-9.4873,2.3076,0.76904,0.25635,-1.7949,-13.5898,-2.3076,-2.8203,0.25635,1.2822,-0.25635,-0.76904,3.8462,1.7949,
-4.1025,5.6411,1.5386,3.5898,-1.5386,-11.2822,-0.5127,-1.5386,2.0513,-1.5386,-4.6152,0.5127,5.6411,1.0259,
-7.9487,6.4102,4.3589,4.3589,-0.76904,-16.1538,0.25635,-7.436,3.3335,-2.8203,-5.8975,-0.25635,1.7949,4.8716,
-11.0254,4.3589,4.8721,4.3589,-5.3843,-16.1538,-0.25635,-7.9487,2.8208,0.25635,-4.8716,-0.76904,0.76953,8.9746,
-11.282,3.5896,2.0515,1.5383,-8.718,-12.8206,-4.1023,-3.5896,4.1028,-0.51294,-4.6155,0.51294,3.5896,8.718,
-8.7183,3.0767,0.5127,-0.5127,-6.667,-14.8721,-5.1284,-7.6924,4.1025,1.5386,0.5127,-0.5127,4.6152,5.1279,
-3.5898,1.5381,0,2.0513,-0.51318,-14.3594,-5.1284,-13.8462,0.5127,5.1279,1.0254,-2.5645,0,2.564,
-6.6667,1.0256,2.0515,-1.0256,-4.1023,-12.3079,-4.6155,-11.282,2.5642,2.5642,2.5642,-1.0256,1.5383,5.1282,
-15.6414,3.3333,1.7947,-4.3591,-13.5901,-16.6667,-2.8206,-6.9231,3.3333,-0.76929,5.8972,0.76929,2.3074,10.5125,
-13.0771,0.76904,-0.25635,-1.2822,-7.9487,-16.1538,-3.3335,-6.9233,0.25635,1.2822,2.8203,6.4102,0.25635,14.6152,
-9.7439,-6.6667,1.0256,-1.5383,-1.0256,-12.3079,-1.0256,-8.718,5.6409,5.1282,4.1023,11.282,4.6155,12.3074,
-9.4873,-4.8716,0.25635,-7.436,-4.8716,-14.6152,-0.25635,-10,6.9233,3.8462,4.3589,4.3589,5.3848,5.3848,
-1.0259,3.0767,2.0513,-3.5898,-3.0771,-12.8208,0,-6.1543,5.6406,2.564,0,-1.5386,2.0513,2.0513,
0.25635,0.25635,1.2822,0.76904,-3.8462,-12.0513,-6.9229,-3.3335,4.3589,0.76904,-5.3848,-0.25635,-5.8975,0.76904,
-0.5127,1.5386,-1.0259,2.0513,-2.0513,-10.7695,-4.1025,-3.0771,4.6152,6.6665,0.5127,6.6665,-4.6157,6.6665,
-1.7949,1.7949,-6.9229,-7.436,-3.333,-13.5898,1.7949,-8.4614,2.8208,4.3589,4.8721,2.3076,-3.333,4.3589,
4.8718,4.3591,-1.282,-4.3591,-0.25659,-8.9744,2.8206,-2.3079,4.8718,-0.76929,4.8718,0.25659,-2.8206,5.3845,
2.051,-0.51294,-3.0769,1.0256,-3.5896,-8.2053,-2.0515,-5.1282,1.5383,0.51294,1.5383,1.5383,-4.6155,6.1536,
-4.6155,-0.51294,-7.1794,-1.0256,-7.1794,-12.3074,0.51294,-8.2048,6.1541,9.7439,6.1541,7.1794,1.5383,10.7693,
-5.3848,-0.25635,-10,-8.4614,-14.6152,-19.231,0.25635,-5.8975,5.8975,3.8462,3.8462,3.8462,0.25635,6.4102,
1.282,-0.76929,-8.4617,-6.9231,-17.1794,-20.2566,2.3079,-4.8718,3.8459,0.25659,2.8206,1.7947,-0.25659,2.3079,
2.051,0.51294,-5.6414,-2.0515,-18.4617,-19.4871,-2.5642,-6.6667,2.051,6.1536,2.5642,5.1282,-0.51294,5.6409,
-1.0256,3.5896,-3.0769,-3.5896,-18.4617,-16.4104,-4.6155,-3.5896,6.1541,9.7434,2.051,7.1794,1.0256,9.7434,
-4.3589,0.25635,-6.9233,-8.9746,-12.564,-16.6665,-0.25635,-5.8975,6.9229,4.3589,2.3076,4.3589,3.8462,6.9229,
-3.8464,0.25659,-5.3845,-4.8718,-8.4617,-17.1794,-0.25659,-10.0002,1.7947,0.25659,4.3591,2.3079,0.76929,4.3591,
0.25635,0.76904,1.7949,-0.25635,-12.5645,-17.6924,-2.8208,-8.4619,-2.3076,0.25635,0.76904,0.76904,-4.3594,3.333,
7.436,2.3076,6.4102,-1.7949,-8.9746,-15.1284,2.3076,-6.4102,-2.8208,1.7949,-2.3076,5.3848,-3.8462,4.8716,
5.3848,-1.2817,1.2822,-12.564,-7.436,-18.7178,2.8208,-12.564,-0.25635,-1.7949,0.25635,2.8208,2.3076,3.3335,
0.76929,-5.8972,-0.76929,-12.5637,-8.9744,-22.8203,1.2825,-10.5125,2.8206,0.76929,2.3079,-5.3845,8.4617,5.385,
1.282,-1.282,0.76929,0.25659,-2.8206,-17.6924,2.3079,-2.3079,-0.25659,6.4104,-0.25659,-2.3079,6.4104,10.5129,
-1.2817,0.25635,-3.8462,-0.25635,-2.8203,-19.7434,3.3335,-5.3843,1.7949,4.3594,-0.25635,2.8208,4.3594,8.4619,
-1.7949,-2.3076,-3.8462,-6.9233,-5.3848,-18.2053,2.3076,-6.4102,5.8975,2.8203,3.3335,1.7949,5.8975,7.436,
-0.51269,-3.5898,-1.0254,-3.0767,-1.0254,-11.2817,0.5127,-3.0767,3.0771,1.5386,4.6157,1.0259,5.1284,7.6924,
3.8462,-4.3594,-4.8721,0.76904,-1.7949,-12.0513,-0.25635,-5.8975,4.3589,0.25635,1.2817,-0.25635,3.333,6.4102,
8.4617,0.76929,-6.9231,-1.7952,-4.3591,-12.5642,-0.76929,-3.8464,9.4871,4.8718,2.3074,-1.7952,6.9231,8.4617,
6.4104,-1.7947,-6.4099,-6.9231,-0.76929,-13.5896,0.76929,-0.76929,7.949,6.9231,5.385,-5.3845,6.4104,7.4363,
8.2048,-5.1282,-3.5901,-8.2053,6.6667,-12.8206,1.5383,-6.1541,3.0769,3.0769,2.5642,-6.6667,-1.5383,3.5896,
17.9487,-3.0771,2.564,-2.0513,12.3076,-5.6411,0.5127,-8.7178,2.0513,5.1284,-2.564,-1.0254,-0.5127,6.1538,
17.9487,-3.5898,2.564,-0.5127,12.3076,-6.6665,-1.5386,-7.1797,0,1.5386,-3.5898,0,1.0259,3.0771,
14.8716,0.51269,0,0.51269,18.9741,-7.1797,-2.0513,0,-2.0513,-2.0513,-2.0513,-0.5127,0,4.6152,
15.1279,1.2817,-2.3076,-2.3076,16.6665,-2.8208,-4.3589,-0.25635,0.25635,2.3076,-1.7949,-1.2822,0.25635,12.564,
16.4102,-3.0771,-8.2051,-7.6924,5.1284,-3.5898,-7.1797,-6.6665,1.5386,2.564,0.5127,0.5127,-0.5127,11.2822,
19.7434,-3.8464,-8.4617,-3.8464,4.3586,-7.4363,-4.3591,-5.385,1.282,1.282,1.7947,3.3333,-1.282,8.4612,
14.1023,-4.8718,-4.8718,-2.8206,2.3074,-10.0002,-1.7952,-5.385,1.7947,1.282,-1.282,1.282,2.8206,9.4871,
10.2561,-2.0515,-4.6155,-1.5388,-1.5388,-6.6667,-0.51294,-5.1282,5.6409,4.1023,0.51294,4.6155,7.1794,10.7693,
12.3076,-3.0771,-8.2051,-3.0771,-4.1025,-10.2563,-1.5386,-5.1284,4.6152,2.0513,1.5386,3.0771,2.564,4.6152,
16.6665,-4.8721,-2.3076,-2.8203,3.8462,-12.0513,-1.7949,-1.2822,0.76904,1.2822,-0.25635,1.2822,0.25635,5.8975,
16.6667,-5.3845,3.3333,-0.25659,6.4104,-13.0769,-3.8459,-1.7947,-4.3591,0.25659,-4.3591,1.282,0.76929,6.9231,
19.231,-2.8203,-1.2822,0.25635,-2.3076,-13.5898,-0.25635,-5.3848,1.2822,1.2822,-0.76904,0.25635,1.7949,3.8462,
17.436,1.5386,-9.231,-4.1025,-6.1538,-13.8462,0.5127,-8.7178,4.6152,2.564,-0.5127,-3.5898,0.5127,3.5898,
9.2305,-1.5386,-3.0771,-6.1543,-8.7183,-22.0515,0,-12.3081,3.5894,1.0254,2.0513,0,2.564,5.6406,
5.8977,-9.4871,3.8464,-4.8718,-21.282,-31.0256,-2.8206,-14.6155,2.3079,-1.282,3.3333,1.282,3.3333,2.3079,
14.8721,-2.564,2.0513,0,-14.3589,-18.4614,-3.5898,-6.6665,0,1.0259,0.51318,-3.0767,0.51318,4.1025,
21.7949,5.3848,-0.76904,-3.3335,0.64111,-3.4614,-0.25635,-3.8462,0.25635,1.2822,-0.25635,-3.3335,2.8203,5.3848,
18.2051,1.7949,0.76904,-5.3848,11.0254,0.25635,-2.8208,-8.4619,-2.8208,-1.7949,-1.7949,-0.25635,3.333,1.7949,
16.1541,-2.3079,3.8459,-0.76929,2.3079,-3.8459,-3.8459,-5.3845,-3.3333,-1.282,0.76929,1.7947,3.3333,8.9744,
19.231,-2.8203,2.3076,-1.2817,-4.8716,-7.436,-2.3076,-3.8462,-0.25635,0.25635,7.436,0.25635,7.9487,15.1284,
19.2307,0.76929,2.3079,-4.3591,-2.8206,-4.8718,-5.3845,-9.4871,-0.76929,1.282,6.4104,-3.8464,5.8972,9.4871,
16.4106,2.5645,4.1025,0,0.51318,-3.5894,-6.6665,-8.7178,-1.5381,1.5386,-1.0254,-6.1538,0,9.7437,
17.436,2.564,4.6152,8.7178,-3.0771,-6.667,-6.1538,-0.5127,-1.5386,0.5127,-3.0771,-0.5127,1.5386,15.3843,
17.9487,-2.0513,1.0254,1.5381,-7.1797,-6.667,-8.2056,-5.1284,-3.0771,0,0,2.0513,5.1279,10.769,
17.436,-2.564,1.5386,-2.564,1.5386,-3.5898,-7.6924,-10.7695,0.5127,3.0767,-1.0259,-0.5127,5.6411,6.1538,
15.8975,-0.51318,0,3.0767,6.6665,-7.6924,-8.2056,-5.6411,0,-0.51318,-4.6157,0,0,5.6406,
18.4617,-2.0515,-4.6155,0.51294,1.5383,-6.6667,-4.1028,0.51294,-0.51294,-1.5383,-3.0769,0.51294,3.0769,3.5896,
21.5388,-1.5383,-2.5642,-5.1282,-0.51294,-1.5383,1.0256,0.51294,1.5388,2.0515,-1.0256,-1.5383,8.718,7.6926,
17.9487,-2.5645,0,-5.6411,3.0767,-6.667,-1.0259,-2.5645,1.5381,0,0,-2.0513,4.6152,7.1792,
15.3848,-4.1025,0,-2.564,5.1284,-3.5898,-3.5898,-3.0767,2.564,2.0513,4.6152,0,3.5898,0,
13.8462,-3.0771,-5.1284,-4.6152,6.1538,3.0767,-7.1797,-10.7695,0.5127,5.1279,1.0254,-0.51269,1.5386,-0.51269,
16.1538,-1.2822,-5.3848,-3.3335,10,-0.25635,-4.8721,-20.2563,1.7949,4.8716,0.25635,-0.25635,2.3076,6.9229,
16.9231,-0.51294,-2.051,-0.51294,9.2307,-4.1023,-3.5896,-21.5383,1.0256,0.51294,2.5642,-1.0256,1.0256,5.1282,
16.9233,0,1.0259,0.51269,5.1284,-1.5386,-5.6411,-20.5127,-2.0513,0,0,-0.5127,1.5386,3.5898,
18.718,-2.3079,0.76929,-2.8206,1.7947,-3.3333,-3.3333,-22.3079,-0.76929,1.282,1.282,-0.76929,4.3591,8.4617,
17.1792,-0.25635,-4.8721,-6.4102,4.3589,-7.9487,-2.3076,-17.6924,0.25635,2.8203,4.3589,-1.7949,5.8975,9.4873,
7.436,-2.3076,-10.5127,-9.4873,0.25635,-11.5386,-4.3589,-16.1538,1.7949,2.3076,1.2822,-0.25635,6.4102,3.8462,
5.1284,-5.6411,-9.2305,-7.1792,-2.0513,-7.6924,-2.564,-18.9741,3.5898,2.5645,2.0513,4.6157,9.231,5.1284,
5.8977,-6.9231,-11.0256,-11.5383,-0.76929,-5.8972,-4.8718,-18.718,0.76929,1.7952,2.8206,3.3333,6.9231,5.8977,
2.8208,-8.4614,-13.0767,-17.6924,-0.25635,-8.4614,-5.3848,-16.6665,0.76953,1.2822,3.8462,0.25635,6.4102,3.8462,
-0.25635,-6.9229,-12.0513,-11.0254,0.25635,-5.3848,-2.8203,-16.6665,4.3589,2.8208,5.3848,4.3589,9.4873,6.9233,
-2.564,-6.6665,-10.2563,-3.5898,1.0259,-2.564,-1.0259,-15.8975,8.2051,5.6411,9.231,7.1797,9.7437,8.7178,
-3.5898,-11.2822,-5.6411,-7.1797,2.564,-8.7183,-2.0513,-16.9233,2.0513,2.564,6.6665,4.6152,6.1538,6.1538,
1.7947,-10.0002,-1.7947,-7.949,4.8718,-10.5129,-1.7947,-18.2053,-4.3591,1.7947,2.3079,2.3079,5.8972,7.4358,
3.5898,-6.6665,-5.1284,-7.1797,4.1025,-8.7178,-1.5386,-18.4614,0,3.0771,6.6665,0,8.2051,5.6411,
1.282,-5.8977,-5.385,-5.8977,5.8972,-5.385,-4.3591,-18.718,-1.282,1.282,6.9231,2.3074,5.8972,6.9231,
3.5896,-5.6409,2.0515,-0.51294,7.1794,-2.5642,-4.6155,-19.9998,-5.6409,-1.0256,0.51294,2.0515,4.1028,9.2307,
4.1025,-2.0513,1.0254,0,3.0767,-4.6157,-2.5645,-17.436,0,0,-2.5645,-1.0259,8.2051,5.1279,
2.0513,-0.5127,-1.5381,-1.5381,6.1538,-3.5894,-5.6411,-14.8716,3.0771,0,0,2.0513,9.7437,5.1284,
0.76929,-5.3845,0.25659,-3.3333,12.051,0.25659,-4.8718,-17.6921,-0.76929,-0.25659,-0.76929,2.3079,6.4104,8.4617,
-2.3076,-2.3076,3.8462,-1.2822,11.0254,2.8203,-0.25635,-12.564,0.25635,4.3589,-2.3076,-1.2822,6.4102,6.9229,
-10.0002,-0.76929,2.3079,-4.3591,6.9231,-2.3079,-2.3079,-10.5129,0.76929,4.3591,2.3079,-3.3333,7.4358,4.3591,
-6.9233,-3.8462,-0.76904,-3.3335,10.5127,-1.2822,-6.4102,-13.0771,0.76904,2.3076,2.8203,0.76904,5.8975,8.9741,
1.2817,-2.3076,-1.7949,0.25635,15.1279,3.333,-8.9746,-15.6411,-0.76953,-0.25635,-8.9746,0.25635,1.7949,9.4868,
2.0513,-2.0513,3.0771,-3.5894,14.8721,0,-2.0513,-14.8716,0,0.51318,-5.6411,-4.6152,7.6924,5.6411,
-0.5127,-3.5898,2.0513,-5.6411,15.8975,-2.0513,1.0259,-15.3848,-2.0513,0.5127,4.6152,-7.1797,8.2051,2.564,
0.25659,0.25659,-2.3079,-2.8206,15.1282,2.8206,-5.3845,-16.1541,-3.3333,-0.25659,2.3079,-3.8459,4.8718,5.3845,
1.0254,1.0254,0,0,14.3589,4.1025,-5.1284,-17.9487,-1.5386,-1.0259,-3.5898,-4.1025,4.6152,7.1792,
5.1284,0,2.0513,3.5898,15.3848,3.5898,-1.0254,-16.9229,-4.1025,-3.5894,-5.6406,-6.6665,0,1.0259,
10.0002,1.7947,0.76929,4.3591,14.1028,6.4104,-2.3079,-13.5896,-4.8718,-5.3845,-7.9485,-1.282,-0.76929,1.7947,
10.5132,0.25635,-0.25635,2.3076,9.4873,4.8721,-5.3843,-16.1538,-5.8975,-5.8975,-9.4868,-2.3076,0.76953,9.4873,
9.4871,-0.25659,4.8718,2.3079,6.4104,-0.76929,-0.25659,-15.6409,-1.7947,0.25659,-3.3333,-4.8718,5.3845,9.9998,
3.3333,-0.25659,2.3079,1.7947,-2.3079,-6.4104,1.7947,-17.1794,1.7947,-0.25659,0.25659,-1.7947,6.4104,-0.76929,
6.1536,3.5896,1.0256,6.1536,-2.5642,1.5383,-3.5901,-13.3337,-2.5642,-5.6414,-1.5388,1.0256,3.5896,-1.0256,
10.2563,1.0254,4.1025,6.6665,0,9.7437,-5.1284,-10.2563,-5.6411,-5.6411,-3.5898,-3.5898,1.0254,0,
4.3589,1.7949,6.9233,1.7949,-5.3843,14.1025,-1.7949,-13.0767,-2.8203,0.25635,-2.3076,-2.3076,4.8721,-0.25635,
1.0256,3.0769,4.6155,-1.5383,-7.6921,17.949,-2.051,-10.7693,-1.5383,-2.5642,-1.0256,1.0256,8.718,8.718,
1.2822,-1.2817,1.7949,-2.8203,-6.9229,21.2822,-3.333,-6.9229,-0.25635,-6.4102,0.76953,0.25635,8.4614,14.6152,
-5.3845,-3.3333,1.7947,-5.3845,-14.6155,21.282,-4.3591,-6.4104,1.282,-1.282,6.4104,3.3333,9.4871,13.5896,
-8.9746,-2.3076,0.76904,-2.8208,-20.2563,18.7178,-1.7949,-4.3589,-0.76904,1.2822,10.5127,4.8716,12.0513,11.5386,
-1.5386,1.5381,1.5381,3.0767,-12.8208,19.4868,-1.5386,-2.5645,-7.6924,-1.5386,0,0,8.7178,11.2817,
0.76929,0.76929,5.3845,2.8206,-11.0256,18.2048,-4.8718,-5.8977,-9.4875,-3.8464,-12.0515,-0.76929,3.8459,8.9744,
1.5383,-2.051,7.6921,1.0256,-16.4104,15.3845,-1.5383,-4.1028,-1.0256,-1.0256,-1.5383,4.6155,10.7693,7.6921,
0,-0.5127,4.1025,3.0767,-16.4102,11.7949,-3.0771,-6.1538,-2.5645,-0.5127,0,1.5386,11.7949,8.7178,
-0.51294,4.6155,3.0769,6.6667,-12.3079,14.8718,-4.6155,-12.8206,-5.1282,0.51294,-6.1541,-1.0256,6.6667,9.2307,
-0.25659,1.7947,4.3591,5.3845,-16.1541,16.6667,-5.8972,-12.5642,-4.3591,-1.282,0.25659,-0.25659,4.3591,3.3333,
-1.282,1.282,3.8459,3.8459,-19.2307,14.6155,-6.9231,-11.5388,-5.8977,-3.8464,1.282,-3.3333,5.8972,2.3074,
-2.051,4.1028,4.1028,6.6667,-13.8459,17.4358,-2.051,-13.3333,-4.1023,0.51294,-2.051,-0.51294,9.7434,7.6921,
-2.8206,-0.76929,0.76929,3.8459,-12.5642,16.1541,-4.3591,-15.6409,-1.282,-2.3079,1.282,1.7947,7.4358,4.3591,
-0.25635,-0.25635,1.7949,0.25635,-15.1279,15.6411,-4.8716,-14.6152,3.8462,-1.2817,6.9233,-0.25635,7.9487,2.3076,
-1.5383,-0.51294,2.5642,-1.5383,-17.949,13.8459,-4.6155,-15.8977,3.0769,0.51294,2.051,-1.5383,6.1536,4.1023,
-4.1025,-2.5645,0,1.5381,-16.9233,15.3843,-7.1797,-15.8975,0,-0.51318,0,1.5381,4.1025,6.6665,
-3.5901,-1.0256,-1.5388,3.0769,-15.385,16.9231,-8.2053,-14.3591,2.051,-1.5388,2.5637,1.0256,4.1023,6.6663,
-1.282,2.3079,-1.7947,1.7947,-16.1541,15.1282,-8.9744,-13.0769,0.76929,-0.76929,-0.25659,0.25659,1.7947,6.9231,
0,-1.0259,-2.0513,-2.0513,-15.3848,17.9487,-7.1797,-12.3076,0,1.0254,2.0513,3.0767,2.0513,8.2051,
-0.51269,-5.1284,-1.5386,-2.564,-11.2822,23.0767,-4.6152,-13.8462,1.0254,0.5127,5.6411,1.0254,3.5898,7.1792,
2.0513,-0.51269,0,4.1025,-9.231,20.5127,-7.6924,-16.4102,-2.564,-0.51269,2.0513,0,4.1025,4.1025,
4.6152,0.5127,-1.5386,6.6665,-15.3848,14.8716,-8.2051,-18.4614,-2.564,-1.0259,-0.51269,1.5386,5.6411,3.5898,
3.5896,2.051,-3.5896,2.5642,-15.3845,16.9231,-6.1541,-14.8718,-2.0515,-1.0256,-0.51294,0.51294,3.5896,5.1282,
5.8972,1.282,-0.76929,1.282,-14.1028,18.718,-8.9744,-11.0256,-4.3591,-4.8718,1.7947,-0.76929,0.76929,1.7947,
5.1282,-4.1023,2.5642,1.5383,-26.1538,15.3845,-5.6409,-13.3333,-1.0256,-4.1023,3.5896,1.0256,6.1541,-1.0256,
2.0515,-2.051,1.0256,-3.5896,-26.1538,15.3845,-1.5383,-15.3845,-1.5383,-0.51294,2.0515,0.51294,6.6667,2.5642,
3.8459,-0.76929,-0.25659,-4.8718,-13.5896,19.2307,-0.76929,-14.1028,-3.8459,0.76929,3.8459,0.25659,6.9231,10.5129,
0.51294,-7.1794,-3.0769,1.0256,-28.5896,15.8977,-7.6921,-13.3333,-2.051,-0.51294,5.1282,2.5642,7.6921,13.3333,
-1.0256,-9.2307,-4.1028,3.0769,-43.5896,12.3074,-12.3079,-12.8206,-1.0256,1.0256,1.0256,2.5642,6.6667,6.6667,
11.0254,-4.8716,0.25635,-2.3076,-28.5896,14.1025,-7.436,-10.5127,-3.8462,2.8203,-0.25635,1.2822,5.8975,2.8203,
15.8977,-7.1794,0.51294,-7.1794,-13.5896,2.0515,-7.1794,-15.3845,-10.2566,-2.5642,1.5383,-0.51294,4.6155,0.51294,
14.6152,-8.4614,1.2822,-4.3589,1.4104,-10.5127,-0.76904,-16.6665,-3.8462,0.25635,4.8716,-0.25635,9.4873,1.7949,
17.9487,-4.1025,0.5127,-5.6411,16.4104,-5.1284,1.5386,-15.3848,-0.5127,1.5386,-2.564,-1.5386,8.7178,3.5898,
22.8206,2.8206,1.282,-6.4104,31.4104,3.8459,-1.282,-15.1282,-5.3845,-2.8206,-8.4617,-1.7952,7.9485,2.3074,
21.5383,4.6155,2.0515,-1.0256,29.7434,-1.0256,3.0769,-14.8718,-7.1794,-4.6155,1.0256,-2.051,10.7693,-1.0256,
18.718,-1.282,1.282,3.3333,27.9485,-2.8206,2.8206,-16.1541,-9.4875,-5.8977,1.7947,-3.3333,5.8972,-1.282,
19.2307,-4.8718,1.7947,-2.8206,27.4358,5.3845,2.3074,-16.1541,-6.4104,-1.282,-1.7952,-1.282,5.3845,1.282,
17.949,-3.5896,1.0256,-12.3079,20.0002,-0.51294,0.51294,-16.9231,-2.5642,2.0515,-2.051,-2.051,8.718,0.51294,
14.8718,-2.051,1.5383,-7.6921,15.8972,-4.1028,-0.51294,-13.3333,-1.0256,4.1028,-2.5642,0.51294,8.2053,3.0769,
12.564,-7.9487,1.2822,-1.2822,10.5127,-4.8716,-1.2822,-14.1025,-1.2822,2.3076,-3.8462,1.7949,5.8975,2.8203,
18.9741,-5.1284,4.1025,4.1025,14.8716,-7.1797,-2.0513,-15.8975,0,-1.0259,-4.1025,0.51269,4.1025,0,
23.0767,0,5.6411,2.564,16.9229,-8.7183,-2.0513,-16.9233,2.564,0,-3.0771,-3.0771,3.0767,-1.0259,
20.769,-2.3076,0.25635,-5.8975,9.4873,-7.436,-0.25635,-15.1284,3.3335,4.3589,-0.76904,-5.3848,6.9229,2.8203,
18.718,-3.8459,-9.9998,-11.5383,3.8464,-7.9485,-0.76929,-12.5642,0.76929,3.8464,3.3333,-4.8718,9.4871,4.8718,
17.4358,-4.6155,-10.7693,-11.7947,3.0769,-12.3074,-1.0256,-14.8718,3.0769,2.0515,4.6155,-6.1536,10.2566,1.0256,
18.2048,-1.282,-0.76929,-6.4104,8.4617,-8.4617,2.8206,-14.1028,4.3591,2.8206,-1.282,-8.9744,9.9998,0.76929,
20,0,0,-2.0513,8.2051,-7.1797,3.0767,-12.8208,-1.0259,1.5386,-2.564,-5.6411,7.1792,1.5386,
22.0513,-4.1025,-6.6665,-4.6152,0,-12.3076,0,-13.333,0,4.6157,3.0771,2.0513,10.2563,3.5898,
16.4102,-7.6924,-10.769,-15.8975,-1.5386,-14.8716,0.5127,-12.8203,2.0513,5.1284,3.5898,-0.5127,11.7949,5.1284,
7.4358,-12.5642,-11.5383,-26.9231,1.282,-17.1794,1.7947,-14.6155,0.76929,-0.76929,1.282,-4.8718,9.4871,2.8206,
10.2561,-13.8464,-12.8206,-25.1284,1.5383,-16.4104,0.51294,-16.4104,-2.5642,3.0769,-0.51294,3.0769,7.6921,3.5896,
22.051,-7.1794,-8.2053,-10.1284,5.6409,-9.2307,1.0256,-10.2566,-3.0769,8.2048,-1.0256,8.2048,8.2048,5.6409,
28.718,2.5642,4.1028,4.8716,14.8718,-1.0256,1.0256,-9.2307,-5.1282,-2.051,-2.051,-1.5383,3.5901,-1.5383,
35.1279,9.4873,12.564,12.0513,18.7178,2.3076,-2.3076,-16.667,-6.4102,-7.436,-2.8208,-2.3076,-0.25635,0.25635,
28.4614,0.25635,2.8208,1.7949,3.8462,-7.4355,-7.4355,-23.333,-7.9487,-3.333,-3.8462,2.3076,-0.25635,6.4102,
20.2563,-2.8208,0.25635,-0.25635,-5.3848,-12.0513,-0.76904,-12.564,-3.8462,4.3589,5.8975,6.9229,7.436,7.9487,
21.282,-2.8206,2.8206,-1.7947,-5.3845,-11.0256,0.25659,-12.0515,-3.8464,2.8206,7.4358,3.3333,10.5129,-0.25659,
31.7949,-2.564,6.667,-0.5127,2.5645,-5.1279,0,-18.4614,-4.6152,0,2.5645,-4.1025,9.7437,0,
32.0515,0.76929,8.4617,2.8206,6.9231,-2.8206,-0.76929,-18.2048,-9.4871,-2.3074,-1.7947,-7.4358,5.3845,1.7952,
25.1284,1.0259,5.1284,0,5.1284,-3.0767,0,-15.3848,-6.6665,-1.5386,-3.0767,-6.1538,5.1284,0,
23.0769,-2.051,2.5642,-6.1536,6.6667,-3.5896,1.5388,-12.3074,-3.0769,1.0256,-1.0256,-2.051,7.1794,2.5642,
19.7437,-6.4106,3.8462,-9.4873,8.9741,-10.5132,0.25635,-12.0513,-6.4106,0.25635,-2.3081,-0.25635,10.5127,2.8203,
21.5383,-5.6409,7.6921,-6.6667,13.3333,-13.3333,4.6155,-14.3591,-4.6155,2.0515,-3.0769,-2.0515,14.8718,2.5642,
24.3591,-1.7947,8.4617,-1.282,13.5896,-8.9744,1.282,-16.6667,-4.8718,2.3079,-4.3591,-4.3591,8.4617,2.3079,
23.8462,-1.2822,8.4614,0.25635,7.4355,-6.4106,-0.25635,-14.6157,-1.7949,3.8462,-1.2822,-2.8208,6.4102,3.333,
18.718,-7.4358,5.3845,-6.4104,2.3079,-12.0515,1.7947,-14.6155,-1.7947,2.3079,-1.7947,-4.3591,6.9231,1.7947,
20,-10.7695,4.6152,-8.2051,8.7178,-11.2822,1.5386,-17.9487,-5.6411,0,0,-6.1538,4.6152,0,
29.231,-4.6152,4.6152,-1.0254,10.769,-5.1279,0.5127,-18.4614,-4.1025,-0.51269,4.6152,-5.1279,5.6411,0.5127,
30.0002,3.8464,0.76929,2.8206,3.8464,-1.282,-5.8972,-15.6409,-1.7947,-0.76929,-2.3074,-4.3586,7.4358,1.282,
19.7434,2.8206,0.25659,1.282,1.282,-2.3079,-4.8718,-15.6409,-2.8206,0.76929,-6.9231,-10.0002,7.9485,-0.25659,
19.7437,0.25635,4.3589,0.25635,5.8975,-3.3335,-0.25635,-14.6157,-4.3594,4.8716,-2.8208,-11.0259,8.4614,-0.25635,
31.0256,2.8206,5.8972,-1.282,5.3845,-1.282,-0.25659,-10.5129,-3.3333,0.25659,-4.3591,-4.8718,7.9485,2.8206,
34.1025,1.2822,3.8462,-0.76904,0.25635,-0.25635,2.3076,-12.564,-4.3589,-8.4614,-6.9233,-7.436,10,2.3076,
28.7178,0,1.0254,3.0767,0.5127,-1.0259,0,-16.9233,-9.7437,-7.6924,-7.6924,-10.2563,8.7178,0,
27.6919,1.5381,0,3.0767,1.5381,-0.51318,-5.1284,-14.3594,-8.2056,0,-5.6411,-6.667,3.0767,1.5381,
28.4617,2.8206,2.8206,-2.3074,1.282,-2.8206,-2.8206,-11.5383,-3.8459,2.3079,-1.282,-1.7947,1.7952,5.8977,
24.6152,-1.5386,3.0767,-7.6924,5.1279,-6.667,0.5127,-14.3594,-6.667,0,0,-4.6157,5.1279,4.1025,
20.2566,-7.949,2.3079,-6.4104,9.9998,-5.8972,0.25659,-16.6667,-5.3845,-0.25659,0.25659,-5.8972,7.9485,0.25659,
18.9746,-4.6152,2.0513,0,6.667,-5.6406,0,-15.8975,-0.51269,-1.0254,2.0513,-1.0254,6.1538,3.5898,
15.3845,-2.5642,-0.51294,-1.0256,1.5383,-12.3079,0.51294,-16.4104,-1.5383,-1.0256,5.1282,1.0256,6.6667,4.6155,
17.436,-6.1538,0.5127,-2.0513,6.1538,-12.3076,-0.5127,-14.3589,-3.0771,3.5898,5.6411,-1.0259,11.2817,2.0513,
15.8972,-4.6155,1.0256,1.0256,6.6667,-5.1282,-3.5896,-13.3333,-5.1282,1.0256,-1.0256,-3.0769,10.2566,2.0515,
6.9231,-0.76929,2.8206,3.3333,0.76929,-4.8718,1.282,-13.0769,-1.282,-3.3333,-1.7947,-3.3333,10.0002,4.3591,
2.051,-0.51294,0.51294,3.0769,0.51294,-8.2053,1.5383,-14.8718,-4.1028,-4.6155,-1.0256,-5.1282,7.6921,0.51294,
7.9487,-0.25635,0.76953,2.3076,10.5127,0.25635,-0.25635,-14.6152,-9.4873,-2.8203,-1.2817,-4.3589,7.9487,0.76953,
9.2307,-1.0256,7.6921,3.0769,4.6155,-2.0515,-0.51294,-11.7952,-8.718,0.51294,-1.0256,-1.5383,10.7693,4.6155,
3.5896,-1.0256,11.282,9.7434,-10.3845,-13.8464,-2.0515,-11.282,-8.2053,2.5642,-1.0256,1.0256,10.7693,4.6155,
7.1792,0,9.2305,12.3076,-8.7183,-3.5898,0,-12.8208,-5.1284,4.6152,0,0,11.7949,3.5898,
2.8206,-3.8464,2.3079,1.7947,-1.7947,11.4102,-1.7947,-12.0515,-5.8977,1.7947,-1.7947,-4.3591,8.9744,3.8459,
-6.1536,-4.1023,4.6155,-1.0256,-10.7693,15.3845,-1.0256,-6.6667,-3.0769,2.0515,3.0769,1.0256,11.7952,11.282,
-14.8718,-7.6921,2.5642,-1.0256,-25.7693,16.4104,-5.6409,-13.8459,-6.1541,1.0256,1.0256,1.0256,8.2053,4.1028,
-13.8462,0,3.0771,6.1538,-36.4102,31.4104,-9.2305,-14.3589,-8.2051,5.6411,-4.1025,0,5.1284,0.51318,
-16.1538,1.7949,7.4355,7.9487,-48.4617,34.1025,-7.436,-12.0513,-8.4619,2.8203,-4.3589,-1.7949,4.3589,5.3843,
-16.4102,2.0513,7.1792,7.6924,-45.1282,34.3589,-8.7183,-11.2822,-8.7183,2.0513,-3.5898,-2.0513,4.6152,5.6411,
-15.8975,3.0767,7.1792,8.2051,-41.5386,35.3848,-9.231,-10.2563,-8.7183,1.5386,-2.564,-1.5386,4.6152,6.1538,
-15.1282,3.8464,7.4358,8.4617,-38.2051,36.1541,-9.4871,-8.9744,-8.4617,1.282,-1.282,-1.282,4.8718,6.9231,
-15.1282,4.3591,7.4358,8.9744,-34.6152,37.1794,-9.9998,-7.9485,-8.4617,0.76929,-0.76929,-0.76929,5.3845,7.4358,
-14.8721,4.6152,7.1792,8.7178,-31.2822,37.436,-11.2822,-7.1797,-8.7183,0,0,-1.0259,5.6411,7.6924,
-14.3591,5.1282,6.6663,9.2307,-28.2053,37.9485,-12.8206,-6.1541,-9.2312,-1.5388,1.0256,-1.0256,5.6409,8.7175,
-17.6926,7.4358,1.7947,4.3586,-33.0771,38.2048,-14.6155,-3.3333,-9.4875,-0.76929,-2.8206,0.76929,6.4099,12.5637,
-14.6152,7.436,2.8203,7.9487,-32.5642,39.231,-8.4614,-4.3589,-6.4102,2.8203,-2.8203,-3.3335,4.3589,8.9741,
-16.9231,6.6663,1.0256,16.4099,-29.7439,43.0769,-6.6667,-3.0769,-6.1541,4.1023,-1.0256,-2.0515,2.5637,10.2561,
-18.718,4.8718,-2.8206,12.0515,-30.5129,42.3079,-10.5129,-6.4104,-8.4617,-1.282,1.282,1.282,3.3333,7.9485,
-19.4873,5.1279,-1.0259,1.5381,-35.3848,33.8462,-11.2822,-6.667,-4.1025,0,5.6406,0,6.1538,2.564,
-26.1538,0.51294,-2.051,-2.5642,-40,25.6409,-6.6667,-4.6155,-0.51294,4.1028,8.2053,1.0256,5.6409,4.1028,
-25.6411,-2.0515,-3.5901,-0.51294,-38.9744,24.1023,-1.0256,-2.5642,0.51294,6.1536,12.3074,4.6155,9.7434,6.1536,
-27.9487,1.2822,-4.8716,-0.25635,-38.2051,22.8203,-8.9746,-3.3335,-7.436,2.3076,6.4102,0.25635,10,1.7949,
-30.5129,5.3845,-5.3845,2.8206,-36.1538,24.8718,-12.5642,-5.3845,-10.5129,0.76929,2.3079,-0.76929,7.9485,7.4358,
-22.8203,4.3589,-4.8716,7.9487,-30.5129,27.9487,-7.436,-4.3589,-7.9487,-0.76904,2.8203,0.76904,7.9487,10,
-14.3591,4.615,2.051,14.3586,-24.6155,29.7434,-4.1028,-1.0256,-8.718,-1.0256,1.0256,-2.0515,8.7175,6.6663,
-12.0513,7.436,13.5898,18.7183,-19.7437,30,-1.2817,-1.2817,-8.4614,-0.25635,0.25635,-3.333,10,7.436,
-5.1284,11.2817,22.0513,23.5898,-13.3335,36.4102,0,-5.6411,-11.7949,-2.0513,0,-1.0259,10.2563,8.7178,
-2.5645,11.2817,18.4614,24.1025,-11.2822,39.4868,0,-4.1025,-12.3081,0,-0.51318,-1.0259,10.2563,9.7432,
-12.564,4.8721,5.8975,16.667,-15.1279,33.5898,-3.333,-0.76904,-8.9741,0.25635,-0.25635,-0.25635,11.0259,12.564,
-20.0002,1.0256,4.1023,13.3333,-21.0256,28.2048,-8.2053,-3.0769,-11.282,-2.5642,1.0256,-1.0256,6.1536,8.2048,
-17.4358,4.6155,13.3333,14.3591,-20.5129,28.2053,-6.6667,-5.6409,-11.7947,-0.51294,0.51294,-2.5642,5.6409,5.6409,
-14.6155,7.9485,11.5383,11.0256,-12.5642,31.0256,-4.8718,-5.385,-7.949,0.76929,-3.3333,-0.76929,10.5125,12.051,
-15.1282,3.3333,0.25659,7.9485,-12.0515,29.9998,-6.4104,-2.8206,-6.4104,-0.25659,1.282,-0.25659,11.5383,11.0256,
-15.1282,4.3591,-1.282,9.9998,-18.718,27.4358,-4.8718,-0.25659,-7.4358,0.25659,6.9231,-0.25659,10.5129,5.3845,
-22.051,10.7693,1.5383,11.282,-19.9998,28.718,-6.1541,-2.051,-9.7434,0.51294,-0.51294,-1.0256,9.7434,9.2307,
-25.3848,5.3845,-0.25659,6.4104,-17.1794,26.9231,-4.3591,-3.8464,-5.8977,1.7947,0.25659,-0.25659,9.9998,10.5129,
-23.0767,0,0,2.0513,-20,21.0259,-4.6152,-7.6924,-8.7178,0,1.0259,-1.5386,4.6152,3.5898,
-13.5898,6.9229,7.4355,9.4868,-14.1025,25.3843,-3.8462,-5.3848,-11.0259,-0.25635,-0.25635,0.25635,6.9229,7.4355,
-11.282,5.6409,7.6921,9.7434,-8.2053,25.1282,-1.0256,-6.6667,-11.282,-1.5383,1.0256,-1.0256,9.2307,10.2561,
-14.6152,3.3335,1.7949,5.8975,-8.4614,23.3335,-2.8203,-5.8975,-11.5386,-1.7949,1.7949,-2.8203,4.3589,4.3589,
-13.8462,2.564,1.0259,6.1538,-11.7949,25.1284,-4.6152,-6.1538,-9.231,0.5127,-0.51269,-1.5386,5.1284,7.1797,
-15.8975,-2.564,3.0771,5.6411,-17.9487,18.9746,-1.0254,-8.7178,-7.1792,0,0,0,7.1797,13.3335,
-20,-7.1797,3.0767,-1.0259,-21.5386,11.7949,0,-5.6411,-6.667,0,1.5386,2.0513,7.6924,6.6665,
-16.4102,-4.1025,4.6152,-1.0254,-25.6411,15.8975,0,-3.0771,-5.6411,3.0771,2.564,2.0513,11.2822,0,
-12.8206,1.5383,1.5383,5.1282,-26.6667,19.9998,-3.5896,-8.2053,-10.2566,-0.51294,0.51294,-0.51294,7.6921,2.051,
-14.6152,3.3335,-1.7949,5.8975,-21.7949,20.769,-6.9233,-7.436,-8.9746,-2.3076,1.7949,1.7949,6.4102,8.4614,
-16.9229,-0.51269,-4.1025,1.5386,-22.564,19.4873,-10.769,-2.0513,-7.6924,0.5127,3.0771,1.0259,8.7178,7.1797,
-10.2563,2.0513,-1.5386,3.0771,-26.6667,22.564,-8.2051,-0.5127,-9.7437,0.5127,2.564,-0.5127,9.7437,5.6411,
-7.1794,2.0515,1.5383,5.1282,-24.6155,23.5896,-5.6409,-6.1536,-13.8459,-4.6155,0.51294,-0.51294,6.6667,5.1282,
-10.7693,-0.51294,1.0256,3.5896,-20.5129,21.0256,-8.2048,-6.6667,-14.8718,-5.1282,1.0256,0.51294,4.6155,7.1794,
-13.5898,-1.7949,-0.25635,0.25635,-23.333,15.1284,-4.3589,-3.333,-8.9741,1.2822,6.4102,2.8208,9.4873,12.0513,
-8.7183,-1.5386,0.5127,-0.5127,-22.564,13.8462,-4.1025,-3.5898,-8.2051,2.564,4.1025,1.5386,10.2563,11.7949,
-0.51294,1.5383,5.1282,2.051,-15.3845,22.051,-8.2053,-5.6409,-12.3079,-3.0769,-2.0515,0.51294,5.1282,10.7693,
-0.76929,4.8718,8.4617,1.7952,-17.6921,25.3845,-3.3333,-2.8206,-7.4358,-2.8206,-1.282,0.76929,7.949,11.5383,
-10.5129,2.8206,4.3591,-0.76929,-24.8718,13.0769,-1.7947,-0.76929,-4.8718,1.282,0.76929,-2.3079,11.5383,10.5129,
-9.7437,-1.0259,5.6411,-1.0259,-20.5129,8.7178,-2.5645,0,-3.5898,3.0767,7.6924,0,13.8462,6.6665,
-6.6667,-1.5383,6.6667,-1.5383,-18.4617,14.8718,-4.6155,-0.51294,-3.0769,0.51294,11.282,4.1028,13.3333,5.6409,
-8.9744,-0.76929,1.7947,-2.8206,-20.7693,20.2561,-8.4617,-4.3591,-5.385,0.76929,6.9231,3.3333,8.4612,11.5383,
-6.4104,0.25659,4.8718,-1.7947,-19.7434,23.3333,-7.4358,-3.3333,-2.8206,1.7947,8.4617,-0.25659,7.9485,11.0256,
-2.8206,1.7947,13.0769,3.3333,-15.1282,21.7947,-7.4358,-1.7947,-4.8718,-2.8206,4.8718,-2.3079,5.8972,2.8206,
-4.3591,0.76929,11.5383,4.8718,-8.9744,16.6667,-6.9231,-6.4104,-9.4875,-3.3333,-0.76929,0.76929,3.8459,0.76929,
-7.949,-1.7952,5.3845,-1.282,-13.5901,17.1794,-4.8718,-4.8718,-6.9231,2.3074,1.282,3.8459,7.9485,6.9231,
-7.436,-1.7949,3.3335,-5.8975,-18.2051,23.8462,-6.9233,-0.25635,-3.8462,0.25635,0.25635,3.8462,8.9741,12.0513,
0.25635,2.3076,11.5381,-1.2822,-12.0513,27.9487,-4.3589,-0.25635,-3.8462,-3.3335,-0.76953,2.3076,10,15.1279,
8.7178,7.6924,17.9487,0.5127,-3.0771,27.6924,-0.51269,-3.0771,-9.7437,-4.1025,-0.51269,-0.51269,8.2051,11.2817,
10.5127,6.4102,17.1797,-2.8203,-0.76904,26.4102,0.25635,-2.3076,-8.4614,-0.25635,-1.7949,-0.76904,4.3589,6.4102,
4.1025,-3.5898,8.7178,-7.1797,-10.7695,21.5386,-2.0513,-1.5386,-4.6152,1.0254,0.5127,-0.5127,4.1025,6.6665,
0,-3.0767,2.564,-7.1797,-17.436,20.5127,-5.1284,0,-5.6411,0.5127,6.1538,-0.5127,8.2051,8.2051,
-0.25635,2.8203,7.9487,-5.8975,-16.6665,20.2563,-3.8462,-1.2822,-7.9487,0.25635,5.8975,-2.8203,6.9229,3.8462,
8.7183,7.1797,17.436,3.0771,-11.7949,24.1025,-2.564,-3.5894,-7.6924,-1.5381,0,-3.0767,0,4.1025,
12.3079,9.7434,14.3591,10.7693,-10.2566,29.2307,-4.6155,-1.5383,-5.1282,-5.1282,-0.51294,-1.5383,0.51294,8.718,
1.0256,3.5896,2.5642,-1.0256,-13.8459,24.1028,-4.6155,-5.1282,-9.2307,-9.2307,1.5383,-2.5642,2.0515,5.1282,
-0.76929,3.8459,0.76929,-10.0002,-16.6667,19.7434,-1.7947,-4.3591,-9.4871,-2.8206,4.3591,2.3079,5.8972,8.9744,
-1.2822,2.8203,-2.8203,-8.9746,-27.9487,17.6924,-4.8721,-1.7949,-6.9233,1.2822,2.3076,2.3076,7.9487,12.564,
1.282,3.8464,-4.3586,-1.282,-22.3074,25.8977,-4.3586,-2.8206,-8.9744,-2.3074,1.282,1.282,2.8206,11.0256,
6.6665,6.1538,-0.5127,0,-8.7178,30.2563,-2.564,-4.6152,-14.8721,-6.6665,4.1025,4.1025,0,8.7178,
-0.76929,2.3074,0.76929,-5.8977,-21.282,21.282,-2.8206,-0.76929,-9.4875,-3.3333,10.5125,5.8972,8.4612,10.5125,
-8.2051,-3.0771,-0.5127,-8.7178,-26.1538,17.436,-1.0254,3.0771,-3.5898,0.5127,11.2822,4.6152,10.769,14.8716,
-0.25635,-4.3589,0.76904,-12.564,-11.1538,17.1797,3.3335,-2.3076,-5.8975,-5.3848,8.9741,0.25635,6.4102,12.0513,
1.7947,-4.3591,1.282,-17.6926,3.8462,4.3586,-1.282,-7.4358,-10.5129,-9.4871,7.4358,-3.8464,5.3845,5.8972,
0.51294,-4.1028,4.1023,-12.8206,11.282,-4.6155,-2.0515,-0.51294,-6.6667,-1.5383,9.7434,0.51294,10.7693,9.7434,
0.25635,-4.3589,3.333,-10.5132,14.1025,-5.3848,2.3076,-1.7949,-9.4873,-3.3335,4.3589,-0.25635,8.9741,7.9487,
-0.51294,4.1028,8.2053,-7.1794,23.0769,1.5383,0.51294,-7.6921,-15.3845,-8.2048,-4.1023,-4.1023,3.0769,4.6155,
0,4.1025,12.3076,0,13.8462,0,-2.0513,-7.1792,-11.7949,-4.1025,-5.6411,-2.564,3.0771,7.6924,
1.0254,-3.0771,8.7178,0,7.1792,-10.2568,-3.5898,-3.0771,-7.6924,0,-1.5386,0.5127,7.1792,10.2563,
5.8975,-0.25635,7.9487,-1.7949,20.769,-7.9487,-3.3335,-0.76953,-8.4619,-1.2822,1.2817,0.25635,11.0254,13.5894,
13.0769,3.3333,9.4871,-3.3333,27.949,-0.76929,0.76929,-4.3586,-6.4104,-4.3586,-0.76929,-2.3074,9.4871,10.5129,
14.3591,4.6155,8.2053,-1.5383,21.5388,-1.0256,1.0256,-8.718,-8.2048,-6.1536,-4.1023,-3.5896,3.5901,4.1028,
14.1025,5.3848,11.0259,0.25635,21.2822,-4.8716,-0.25635,-11.0254,-11.0254,-5.3843,-0.25635,-5.3843,3.3335,5.8975,
15.3848,3.0771,13.3335,-1.5386,27.6924,-7.1792,0.5127,-12.3076,-12.3076,-7.6924,-0.5127,-9.7437,6.1538,7.1797,
17.1797,5.8975,15.6411,-2.3076,30,-2.3076,2.3076,-7.436,-11.0254,-5.8975,-5.3843,-6.9229,6.9233,4.3589,
13.8464,3.0769,13.3333,-8.2048,25.6409,-1.5383,1.5383,-7.6921,-9.2307,-3.5896,-3.5896,-3.0769,4.1028,4.6155,
14.6155,3.3333,11.0256,-10.5129,25.8972,-1.282,-1.282,-8.9744,-10.0002,-5.3845,0.76929,-0.76929,1.7947,12.051,
15.3845,6.6667,9.7434,-6.1541,25.6409,-1.0256,-2.5642,-6.1541,-9.2307,-5.6409,2.051,-1.0256,1.0256,9.7434,
12.0513,-0.25635,5.3848,-8.4614,19.231,-4.3589,0.25635,-2.8203,-3.3335,-2.8203,1.2822,-3.3335,0.76904,6.4102,
11.0256,-4.3586,1.7952,-14.6155,16.1541,-6.9231,1.282,-2.8206,-1.7947,-1.282,1.7952,-2.8206,2.3079,12.0515,
12.8206,-1.0256,3.0769,-12.3079,14.8718,-8.718,1.0256,-5.6414,-4.6155,-2.5642,5.6409,-3.5901,6.1536,6.6663,
14.6155,0.76929,2.8206,-1.7952,12.5642,-6.4104,-0.76929,-3.3333,-6.9231,-3.3333,6.4099,-3.3333,4.3586,0.76929,
14.1028,1.7947,1.7947,2.3079,9.9998,-2.3079,-0.76929,-0.76929,-6.9231,-2.8206,-1.7947,0.25659,-0.25659,9.4871,
11.7947,3.0769,-0.51294,-4.6155,7.6921,-5.1282,3.0769,-6.1536,-6.6667,0.51294,-6.1536,-0.51294,2.0515,12.8206,
5.8975,1.2817,-2.8208,-9.4873,0.76904,-12.5645,3.8462,-7.436,-7.9487,0.25635,-0.25635,-1.7949,4.8716,1.2817,
1.0256,-3.5901,1.5383,-8.718,-1.0256,-11.7952,6.1536,-1.0256,-3.0769,-2.0515,6.6667,2.051,7.6921,1.0256,
-0.76953,-3.3335,3.8462,-10,4.8716,-11.5386,5.3843,-0.25635,-2.8208,-2.3081,1.7949,0.25635,7.4355,6.9229,
2.8206,-0.76929,3.8464,-7.4358,4.3591,-12.5642,5.8977,-0.76929,-6.9231,-3.3333,0.76929,-0.76929,8.9744,6.4104,
1.5383,-4.6155,3.0769,-6.6667,0.51294,-9.7439,5.6409,-1.5383,-9.7439,-8.2053,5.1282,-0.51294,7.1794,1.5383,
-0.25635,-2.3076,4.3589,-5.3848,14.6152,-0.25635,4.3589,-1.2822,-7.436,-5.3848,5.3848,0.25635,5.3848,4.3589,
1.5383,-2.5642,6.1541,-8.2053,24.1028,-1.5383,5.1282,-1.5383,-4.1023,-2.051,2.5642,-1.5383,8.718,6.1541,
1.0256,-3.5896,12.3074,-6.6667,11.282,-8.2053,5.1282,-1.0256,-4.1028,-4.1028,2.5642,-1.0256,9.7434,4.6155,
-7.949,-1.282,13.5896,-1.282,3.8459,-12.5642,2.8206,-0.76929,-6.4104,-3.8459,0.76929,0.76929,7.4358,1.7947,
-11.0259,-0.25635,6.4102,-3.3335,16.6665,-12.0513,3.3335,-2.3076,-5.8975,-1.2822,0.76904,0.25635,9.4873,2.8203,
-7.6924,0.5127,3.0771,-4.1025,16.4102,-9.231,5.6411,-0.5127,-4.6152,-0.5127,2.564,-1.0254,11.2822,5.1284,
-11.7949,-3.0767,3.0771,-3.5898,1.4102,-13.8462,5.6411,-0.5127,-4.1025,1.5386,2.0513,-1.5386,9.7437,3.5898,
-7.6926,-2.0515,9.2307,-2.0515,7.1794,-14.8718,8.2048,-1.0256,-1.0256,4.6155,1.0256,-3.0769,10.7693,4.6155,
0.76929,3.3333,16.1536,-0.76929,22.1794,-10.0002,8.9744,-2.3079,-3.8464,-0.76929,-2.3079,-12.5642,11.5383,3.3333,
3.0769,5.6409,16.4104,-2.5642,31.282,-9.7439,6.6667,-2.0515,-8.2053,-7.1794,-0.51294,-12.3079,10.2561,0.51294,
7.9485,5.3845,12.0515,-7.4358,44.3591,-13.0769,4.8718,-2.8206,-9.4871,-6.4104,0.76929,-2.3079,4.8718,-0.76929,
15.3845,4.6155,14.8718,-8.718,59.3591,-16.9231,11.7947,-4.1023,-6.1536,-0.51294,0.51294,-1.0256,4.1028,-2.5642,
18.7178,7.9487,22.3076,-3.8462,72.564,-18.7178,17.1797,-2.8203,-4.8716,0.25635,-0.25635,-8.4614,7.9487,-2.3076,
24.8718,12.051,19.7434,-4.8718,76.1536,-18.2053,12.5637,-1.282,-8.4617,-4.8718,-4.8718,-11.5388,8.4612,1.282,
33.333,11.7949,17.436,-5.1284,80.5127,-15.3848,14.3589,-1.5386,-6.1538,-4.1025,-4.1025,-7.6924,9.7437,1.5386,
28.2051,12.8208,22.564,1.5386,73.3335,-16.9229,16.4102,-4.1025,-9.7437,-4.6152,-1.5386,-7.1792,5.1284,-4.1025,
25.8977,15.1282,24.3591,4.3591,68.9744,-18.2048,14.6155,-6.4099,-13.0769,-10.5125,-1.282,-12.5642,1.282,-6.9231,
25.3845,12.0515,19.2307,3.8459,69.4871,-16.6667,13.5896,-4.8718,-10.5129,-12.0515,-5.8972,-13.0769,4.8718,-3.8459,
15.3845,8.718,12.3079,1.5383,64.1023,-16.4104,9.7434,-5.1282,-11.7952,-9.2307,-10.2566,-5.1282,3.5896,-1.5383,
8.7178,7.6924,10.2563,-2.564,60.5127,-18.4614,12.8208,-4.1025,-9.231,-4.6152,-1.5386,-0.5127,3.5898,0.5127,
0.25659,1.7947,2.8206,-7.4358,56.1541,-25.3845,13.0769,-5.8972,-7.949,-4.3591,0.76929,-8.9744,6.9231,-0.25659,
3.0767,0,5.1279,-4.1025,52.3076,-21.5386,13.333,-2.0513,-4.6157,-0.5127,0,-8.7183,11.7949,3.0767,
11.0256,3.3333,11.0256,-3.8459,46.9231,-20.2561,11.5383,-1.7947,-7.4358,-1.282,-3.8459,-6.4099,4.3591,1.282,
11.2822,11.2822,16.4106,0,49.231,-23.5894,12.8208,-0.51269,-8.2051,-1.5381,-3.5894,-6.6665,4.1025,0,
2.0515,5.1282,16.9231,-3.0769,42.0515,-31.282,12.8206,-1.0256,-4.1028,-0.51294,-2.5642,-5.6409,11.282,0.51294,
0,-4.103,15.897,-7.6924,34.8716,-31.7952,7.6919,0,-4.103,0.5127,-2.0513,0,10.769,2.0513,
-0.5127,0,15.8975,-8.2051,37.436,-24.6152,5.1284,0,-8.2051,-1.0254,0.51269,-1.0254,6.1538,1.5386,
1.5386,8.2051,16.4102,-0.5127,40.5127,-21.5386,11.7949,-3.0771,-8.2051,-3.5898,0,-5.6411,5.6411,0,
10.2563,7.6919,15.3843,6.6665,39.4868,-22.5645,12.3076,-7.6924,-12.8208,-6.667,-10.7695,-7.1797,2.0513,-2.0513,
14.3589,5.1284,14.3589,6.1538,43.5898,-20,10.7695,-6.6665,-12.3076,-5.1279,-11.2817,-7.6924,2.0513,-2.0513,
12.3076,8.2051,14.3589,1.5386,50.2563,-16.4102,8.7178,-3.0767,-9.2305,-3.0767,-2.564,-6.6665,2.564,-1.5386,
11.0254,7.4355,13.5898,0.25635,45.3843,-18.2051,7.9487,-3.8462,-12.0513,-4.3589,-2.3076,-2.8208,0.25635,-0.25635,
6.4099,1.7947,8.4612,-1.282,35.1282,-23.8464,8.4612,-4.8718,-7.949,-1.282,-1.282,-7.4358,4.8718,1.282,
1.2822,-1.2822,2.3076,-8.4614,32.0513,-26.4104,6.4102,-0.76904,-0.25635,-1.2822,1.7949,-14.1025,5.3848,0.25635,
0.5127,-5.1284,0.5127,-16.4102,31.2817,-31.7949,6.6665,-0.5127,0.5127,-7.1797,2.0513,-13.3335,2.564,-1.0259,
4.8718,-2.3079,8.9744,-14.6155,34.1023,-29.4873,11.0256,-1.7952,-0.76929,-4.3591,0.76929,-8.4617,8.4612,3.3333,
8.718,0.51294,14.8718,-11.7947,39.4871,-22.5642,8.718,-4.6155,-4.1023,-0.51294,-5.6409,-12.3079,6.1541,1.5383,
12.3076,3.0771,17.436,-6.6665,43.5898,-18.4614,13.3335,-2.0513,-1.0254,0,-0.51269,-11.2817,0.51318,0,
7.6924,4.1025,12.8203,-5.1284,37.9487,-21.5386,10.769,-1.5386,-4.6152,-4.1025,1.0254,-9.231,-0.5127,0.5127,
4.3589,2.3076,12.564,-5.3843,32.564,-19.7437,3.8462,-0.25635,-7.436,-2.8203,-3.8462,-12.0513,4.3589,0.25635,
3.5894,0,15.3843,-5.6411,30.2563,-17.9487,5.6406,1.5381,-5.6411,-1.0259,-5.1284,-16.9233,2.0513,0,
2.8208,2.8208,13.0771,-4.8716,28.9746,-21.7949,11.0259,0.76953,-6.4102,-4.3589,-1.2817,-11.0254,0.25635,-0.25635,
4.8716,4.8716,11.5386,-5.8975,21.7949,-25.8975,10.5127,0.25635,-5.8975,-5.8975,-0.25635,-4.8721,4.3589,-1.2822,
7.1797,5.1284,13.3335,-4.6152,21.5386,-25.6411,8.7178,1.5386,-5.6411,-3.5898,-6.1538,-8.7178,3.5898,-1.5386,
2.564,3.0767,10.2563,-3.0771,26.6665,-25.1284,12.3076,0,-4.1025,0,-2.564,-12.3076,1.0254,-1.5386,
0.25635,-0.25635,1.7949,-6.9229,22.3076,-29.4871,11.0259,-1.2817,-0.76904,0.76953,4.3589,-13.5898,2.3076,-0.25635,
0.25635,-1.7949,2.8203,-9.4873,11.0254,-31.5386,4.8716,-0.25635,-1.2822,-1.2822,4.3589,-10,5.3843,0.25635,
-1.5386,-1.5386,14.3589,-6.1538,9.2305,-29.7437,9.2305,0,-2.0513,0.5127,1.5386,-6.667,7.6924,0,
6.1536,4.6155,22.051,-1.5383,21.5383,-22.0515,17.4358,-0.51294,-4.6155,-1.0256,-3.5896,-6.6667,5.6409,0.51294,
12.0513,6.4102,19.231,-3.8462,24.8716,-19.231,16.1538,-0.76904,-8.4614,-7.9487,-5.8975,-5.3848,2.8203,0.76904,
4.1025,0,14.3589,-4.1025,18.4614,-23.5898,9.7432,0,-9.7437,-6.667,-1.5386,-4.6157,0.5127,0,
-0.76904,-0.25635,14.6152,1.7949,16.667,-27.9487,10,1.2822,-9.4873,-2.3076,-0.76904,-5.8975,0.25635,0.25635,
2.8203,3.333,19.2305,0.25635,10.5127,-31.0259,14.1025,-0.25635,-7.9487,-4.8721,-4.8721,-6.9233,5.8975,-0.76953,
3.8462,4.8721,22.3076,0.25635,12.0513,-27.9487,12.564,-0.25635,-8.9741,-3.8462,-4.3589,-3.333,7.436,-0.76904,
3.0771,-1.0254,14.8721,0,23.0771,-26.1538,10.7695,0,-8.7178,0,-3.0767,-2.564,3.5898,2.0513,
3.8459,-4.8718,2.8206,-6.9231,23.8459,-27.949,12.5637,-2.8206,-5.8977,-0.76929,0.76929,-7.4363,5.8972,1.282,
2.8206,-0.76929,0.76929,-5.385,18.2048,-25.3848,13.5896,-1.282,-3.3337,-1.7952,7.4358,-5.385,9.9998,1.282,
-4.6152,-3.0767,2.0513,-2.0513,14.8721,-30.2563,12.8208,2.0513,-3.0767,-2.564,7.1797,-3.5898,10.7695,2.0513,
-5.6411,-6.1538,3.0771,-4.1025,15.8975,-32.3076,11.2822,2.5645,-6.1538,-2.0513,4.6157,-8.7178,10.2563,2.0513,
-2.3076,-5.8975,7.436,-4.8716,11.0259,-31.0256,12.0513,2.3076,-4.8716,-2.8203,2.3076,-7.9487,8.9746,4.3589,
-8.9746,-8.9746,11.0254,-6.9233,0.25635,-38.2053,11.5381,0.76904,-3.3335,-6.4106,2.8203,-0.25635,6.9229,2.3076,
-6.6667,-6.1541,12.8206,-2.5642,6.1541,-28.2051,9.7434,3.5896,-4.6155,-2.051,4.1028,1.0256,7.6921,-1.0256,
2.0513,-3.5894,11.7949,0,12.8208,-13.2051,7.6924,0,-8.2051,-0.5127,-2.0513,-7.6919,3.5898,1.5386,
0.76929,-0.76929,13.5901,3.8464,3.3333,1.7949,7.4358,-4.3586,-8.9744,-5.3845,-9.4871,-4.8718,-1.7947,5.8977,
-2.5642,1.0256,16.4104,7.1794,-11.282,3.0769,6.6667,-1.0256,-7.6921,-3.5896,-4.1023,-2.5642,1.0256,4.6155,
-5.1279,0,16.9233,2.0513,-20,12.3076,6.6665,-0.51269,-6.6665,-1.0254,5.6411,-6.1538,5.1284,0,
-9.2307,-1.5383,12.8206,-6.1536,-19.9998,20.0002,5.1282,1.5383,-6.1536,-3.0769,4.6155,-1.5383,4.6155,3.5896,
-11.7947,-4.615,3.0769,-9.2307,-23.0769,14.8718,4.1028,4.6155,-6.6663,-2.5637,1.0256,-1.0256,3.5901,8.2053,
-11.7947,1.0256,-1.0256,-2.051,-31.282,10.2566,4.1028,4.1028,-6.6667,-1.0256,1.0256,-5.6409,4.1028,5.1282,
-13.8462,5.1284,1.0259,0,-32.8206,9.231,2.0513,0,-4.6152,-6.6665,0.51269,-10.2563,2.564,0,
-5.8975,4.3589,8.4614,-0.25635,-22.8203,9.4873,7.436,1.7949,-4.8716,-9.4873,0.25635,-6.9233,4.3589,-0.25635,
-3.8462,3.8462,10.5132,0.25635,-24.8716,4.8721,4.8721,0.76953,-12.564,-8.9741,-7.4355,-4.8716,1.2822,-0.25635,
-7.9487,4.3589,8.9746,-0.25635,-30,4.8721,4.3589,0.25635,-7.9487,-2.8203,-0.25635,-2.3076,5.3848,1.2822,
-14.6155,-0.76929,3.8459,-7.949,-33.0769,4.3591,4.8718,0.76929,-3.3333,-2.3079,7.4358,-0.76929,9.4871,2.8206,
-21.282,-3.8459,-1.282,-11.0256,-36.6665,0.76929,3.8464,4.3591,-5.8972,-0.76929,3.3333,2.3079,6.9231,3.8464,
-22.0513,-6.1538,-5.6411,-7.1797,-40.5127,-1.5386,5.6411,2.564,-2.564,2.564,2.564,3.0771,5.1284,1.5386,
-16.9229,-6.1538,-3.5894,-6.6665,-41.0254,0,5.6411,0.51318,-1.0254,0,6.1538,2.0513,6.1538,3.5898,
-14.3591,-3.0769,1.5383,-6.6667,-41.5386,1.5383,3.5896,3.0769,-4.1028,-3.0769,4.1023,-1.5383,4.1023,3.5896,
-13.8462,0.51318,-1.0254,0,-38.9741,6.1538,2.0513,1.0259,-6.6665,-2.0513,0,-1.5381,2.0513,0.51318,
-15.8975,0.5127,-4.6152,0,-35.8975,8.2051,0,-1.5386,-9.2305,-2.0513,2.564,4.6152,1.5386,3.0771,
-18.2051,-1.7949,-3.333,-6.9229,-35.6409,4.8721,1.7949,3.3335,-10.5127,-3.8462,6.9233,6.4102,1.7949,4.3589,
-16.1541,-1.282,-0.76929,-3.8459,-31.5386,5.3845,4.3591,3.8459,-10.0002,-4.8718,3.3333,0.76929,2.3079,4.3591,
-12.0513,-3.8462,2.8203,1.7949,-27.9487,2.8203,4.3589,-1.7949,-8.4614,-2.8203,2.8203,-3.3335,3.8462,6.4102,
-16.4102,-5.1279,3.5898,-2.564,-32.3076,0.51318,5.6411,0,-7.1792,0,8.2051,-1.5381,5.6411,5.6411,
-23.0769,-1.5383,-1.0256,-7.1794,-37.9487,1.5383,4.6155,2.0515,-8.718,-2.051,9.2307,1.5383,5.6409,1.0256,
-19.4873,-3.5898,-1.5386,-9.231,-35.3845,1.5386,8.2051,1.5386,-3.5898,-1.5386,11.2822,2.0513,8.2051,3.5898,
-14.6157,-6.4106,3.333,-12.0513,-29.4873,5.3843,8.9741,1.7949,-4.8721,-1.7949,6.4102,-3.8462,4.3589,4.3589,
-6.9231,3.3333,12.5642,-1.282,-22.8206,14.1023,9.4871,3.3333,-8.9744,-0.76929,0.76929,-3.8459,2.3079,-0.76929,
-1.5383,6.6667,14.8718,7.6921,-18.4617,14.3591,7.1794,2.0515,-11.282,-3.5896,0.51294,-1.0256,-0.51294,-1.5383,
-2.5642,1.0256,11.7952,3.0769,-18.9744,13.3333,2.0515,1.0256,-14.8718,-7.1794,-1.0256,-3.5896,-4.1023,6.6667,
-3.0769,0.51294,10.7693,-0.51294,-22.5642,13.8464,7.1794,0.51294,-11.7947,-2.5642,-1.5383,-5.1282,2.0515,9.7434,
-3.8459,2.8206,8.9744,1.282,-20.2566,8.9744,8.4617,-2.8206,-10.0002,-0.76929,-1.282,-3.3333,0.76929,0.76929,
-0.76929,5.3845,7.9485,1.282,-11.0256,12.5642,5.8972,-0.25659,-8.9744,-3.3333,2.3079,-2.3079,-4.8718,0.25659,
-3.0767,2.564,4.1025,-6.1538,-13.8462,12.3076,5.6411,2.0513,-7.1797,-5.1279,3.5898,-3.5898,-2.0513,5.1284,
-10.2566,0.51294,1.5383,-8.2053,-26.1541,6.6667,3.0769,0.51294,-7.1794,-2.0515,2.051,-2.0515,-0.51294,3.0769,
-15.6409,-5.3845,2.8206,-6.4104,-30.5129,4.3591,1.7947,-1.282,-5.3845,1.282,2.3079,1.282,-2.8206,2.3079,
-7.6926,-4.6155,3.0769,-6.1541,-16.9231,6.6667,4.6155,0.51294,-2.5642,0.51294,-0.51294,2.051,-3.0769,4.1023,
0.76904,1.2822,2.3076,-3.8462,-5.8975,8.4614,5.3848,-0.25635,-3.3335,-2.8203,-2.8203,0.25635,-2.3076,1.2822,
-3.3335,-0.76904,6.9229,-3.8462,-17.6924,0.25635,6.4102,-1.7949,-1.7949,1.7949,3.3335,0.76904,-0.25635,0.76904,
-4.6155,-3.0769,6.1541,-9.2307,-27.1794,-2.051,6.6667,0.51294,-3.5896,5.6409,5.6409,1.0256,-0.51294,3.5896,
-2.8203,0.76904,1.7949,-11.0259,-23.3335,6.4102,5.8975,0.25635,-7.9487,-0.76904,2.3076,-0.25635,-2.3076,1.2822,
-2.8208,7.4355,0.76904,-1.7949,-21.2822,10,4.3589,0.25635,-7.9487,-3.3335,-0.25635,2.3076,-3.3335,1.2817,
-4.1025,6.667,0,0,-21.5381,8.2051,2.5645,0,-9.2305,-2.0513,0,2.5645,-4.1025,0.51318,
0.76953,5.3848,3.3335,-2.3076,-14.6152,14.1025,6.4102,-0.25635,-8.4614,-1.7949,2.8208,0.25635,-2.3076,-0.76904,
2.051,4.1023,3.5896,3.0769,-13.3333,13.8459,6.1536,-0.51294,-8.2053,-3.5896,-1.0256,0.51294,-3.5896,-1.0256,
-3.8459,-1.282,1.7947,3.3333,-18.2053,6.4104,5.8972,-0.25659,-6.9231,-3.8459,0.25659,1.282,-2.3079,1.282,
-8.4617,-2.8206,3.8459,-2.8206,-19.7434,4.8718,7.4358,0.25659,-5.3845,-0.76929,4.8718,-0.25659,3.8459,5.3845,
-10.5129,-2.3079,1.282,-4.8718,-23.8462,-0.76929,5.3845,-0.25659,-7.949,0.25659,0.25659,0.25659,2.3079,2.8206,
-9.231,-2.0513,1.0259,-1.0259,-25.1282,-4.6152,9.7437,-2.564,-3.5898,3.0771,1.0259,1.5386,2.564,2.0513,
-14.8716,-4.6152,3.5898,-2.564,-26.1538,0,10.2563,-6.6665,-3.5898,3.5898,3.0771,0,4.6152,4.6152,
-20.2563,-6.9229,-0.25635,-7.9487,-29.4871,1.7949,9.4873,-6.9229,-3.3335,3.8462,2.8208,0.25635,8.9746,6.4102,
-20.769,-5.3843,-2.8203,-7.9487,-31.5383,0.25635,12.0513,-5.3843,-0.25635,6.4106,4.3589,0.25635,11.0259,8.4619,
-19.4871,-5.1279,2.0513,-4.1025,-26.6665,0,9.231,-2.564,-2.0513,7.1797,3.0771,0,5.1284,7.1797,
-17.436,-9.231,4.1025,-5.6411,-22.0513,-0.5127,4.1025,-3.5898,-2.564,2.564,1.0254,2.0513,0.5127,2.0513,
-18.718,-5.385,2.8206,-3.8464,-21.7952,6.4099,3.8459,-3.3333,-0.76929,0.76929,5.3845,5.3845,-0.76929,3.3333,
-18.4614,-3.0771,0.5127,-0.5127,-21.0256,11.7949,9.7437,-3.5898,-1.0259,6.1538,6.6665,4.6152,-0.5127,7.6924,
-11.7949,-6.1538,-0.51269,-4.1025,-17.4355,7.6924,12.3076,-6.1538,-2.564,7.1797,0.5127,4.1025,3.5898,7.1797,
-10.7693,-3.5901,4.6155,-2.5642,-13.3333,7.6921,9.2307,-4.6155,-3.0769,3.0769,-1.0256,1.0256,3.5896,4.6155,
-14.8718,-3.0769,6.1536,3.0769,-13.8464,9.7434,8.2048,-5.1282,-3.0769,0.51294,1.5383,-2.5642,-0.51294,3.0769,
-14.3589,-3.5898,2.564,2.564,-10.7695,6.6665,6.6665,-11.2822,-6.1538,0,-3.0771,0,0.5127,1.5386,
-14.8721,-3.5898,6.6665,-5.1284,-8.2051,1.5386,9.7437,-12.8208,-1.5386,6.1538,-1.5386,2.0513,9.2305,5.1279,
-20.2563,-8.9744,6.9231,-12.051,-10.5129,-1.282,12.5642,-10.5129,1.282,6.9231,1.282,-6.9231,6.4104,5.8977,
-14.8721,-4.1025,4.1025,-6.667,-4.1025,5.6411,13.333,-9.231,-1.5386,1.5386,1.5386,-12.8208,3.0767,4.6152,
-11.5383,0.76929,3.8464,-3.8459,-6.4104,8.4617,11.5383,-13.0769,-2.3074,-0.76929,2.3079,-8.9744,6.4104,1.282,
-12.5642,-1.7947,4.3591,-3.3333,-14.1028,4.8718,10.5129,-13.0769,-3.3333,1.7947,1.282,-0.76929,4.8718,0.76929,
-11.7947,-5.6409,3.5896,-1.5383,-9.2307,6.1541,11.7947,-8.718,-5.6409,2.0515,-1.0256,2.5642,3.0769,1.0256,
-11.0259,-1.7949,7.9487,-1.2822,-5.8975,12.564,11.5381,-3.8462,-3.8462,0.25635,0.76904,1.2817,5.8975,-0.25635,
-7.436,4.3589,11.5386,4.3589,-12.564,17.6924,5.8975,-3.3335,-4.8716,-1.2822,0.25635,-0.25635,2.3076,-0.76904,
-4.3589,5.3843,8.9741,11.5381,-15.6411,15.6411,7.4355,-4.3589,-4.8721,-0.76953,-2.8208,0.25635,1.7949,-0.25635,
-9.231,3.0767,5.1279,6.6665,-15.3848,9.7437,10.2563,-3.5898,-2.564,0,-2.564,0,4.1025,-0.5127,
-15.1284,-2.3076,2.3076,-5.3848,-18.7178,5.8975,7.9487,-6.4102,-3.3335,-0.25635,1.2822,0.25635,1.2822,1.2822,
-13.5898,-4.3589,0.76904,-3.8462,-14.1025,11.0254,14.1025,-12.0513,-1.2822,0.25635,8.4614,0.25635,-0.25635,3.3335,
-14.6152,1.2822,-0.25635,2.3076,-17.1797,17.1797,14.1025,-10,-6.4102,-2.8203,3.8462,0.25635,0.76904,-0.76904,
-16.6665,3.8462,3.8462,0.76904,-23.8462,15.1284,8.9741,-5.8975,-7.436,-2.8203,-0.76904,2.8203,4.3589,-0.76904,
-16.1538,-2.3076,6.4102,-1.7949,-21.2822,16.1538,8.4614,-9.4873,-4.3589,-0.25635,1.7949,2.3076,5.3848,0.25635,
-16.9233,-6.667,3.5898,-3.5898,-20.5127,23.5898,9.7437,-8.2051,-7.6924,0.5127,1.5386,1.0254,4.6152,-0.5127,
-16.4102,-8.7183,0,-6.667,-27.1797,24.6152,9.2305,-5.1284,-9.7437,0,5.1279,3.0767,6.1538,1.0254,
-15.8972,-4.6155,0.51294,-4.6155,-23.5896,24.6155,6.6667,-7.1794,-6.1541,-0.51294,5.6409,3.0769,6.1541,3.5896,
-11.2822,0,6.1538,2.0513,-12.3076,27.6924,9.231,-8.7178,-6.1538,-2.0513,0,-2.0513,4.1025,0.5127,
-4.3589,3.8462,11.0259,6.4102,-3.8462,28.4614,16.1538,-3.333,-8.9741,-1.2817,0.25635,-1.7949,3.3335,-0.25635,
-9.2305,4.1025,6.1538,0,-5.6406,23.5898,13.8462,-5.1279,-9.2305,-1.0254,0.51318,-1.5381,0,1.0259,
-14.6152,-0.76904,3.8462,-6.4102,-15.6411,21.2822,11.0254,-7.436,-3.8462,1.7949,0.76904,-1.2822,5.8975,2.3076,
-11.0259,-1.2822,5.8975,-5.3848,-15.1284,18.7178,9.4873,-5.8975,-2.3076,1.7949,0.25635,-0.25635,8.9741,2.8203,
-10.5127,0.76953,3.8462,-4.3589,-6.9229,13.0771,8.4614,-10.5127,-5.3843,-0.25635,0.25635,-3.333,5.8975,0.25635,
-11.5386,2.8203,2.3076,-2.8203,-5.3848,14.6152,12.564,-13.0771,-6.4102,1.7949,-1.2822,-1.7949,6.9229,1.2822,
-8.9741,-0.25635,4.3589,-3.333,-3.333,23.8462,16.1538,-7.9487,-5.3848,1.2822,-1.7949,0.25635,6.9233,5.3848,
-10.2563,-4.6157,3.0767,-7.6924,-4.6157,23.5898,15.8975,-5.6411,-1.5386,0.5127,8.7178,-0.5127,5.6411,6.1538,
-14.8721,0,0,-9.231,-10.7695,16.9229,8.7178,-7.6924,-4.6152,2.0513,7.6924,-1.5386,4.1025,0.5127,
-13.8462,5.1284,3.0771,-4.1025,-11.2822,16.9233,6.6665,-6.1538,-6.1538,2.0513,0.5127,-2.0513,6.1538,-0.51269,
-12.8203,-1.5386,2.0513,0,-9.7437,17.436,8.2051,-9.7437,-6.1538,0,1.0259,-5.1279,4.1025,0.5127,
-6.6665,0,-1.5386,0,-6.1538,23.5898,9.7437,-10.7695,-9.231,3.0767,2.564,-2.564,3.5898,1.5386,
0.25635,6.9229,-1.2822,-3.8462,-3.3335,26.4102,12.0513,-6.9233,-8.9746,1.2817,-2.3076,-0.25635,5.8975,1.2817,
-0.76929,2.3074,1.282,-2.8206,0.76929,23.3333,9.9998,-3.8464,-8.9744,-2.8206,-1.282,-1.282,4.3586,2.8206,
-1.5383,-3.0769,1.0256,-0.51294,0.51294,23.5896,7.1794,-5.1282,-9.7434,-0.51294,2.5642,-1.5383,4.6155,4.1028,
0,0,0.51318,-5.6406,-4.6152,24.6157,12.3076,-6.1538,-8.2051,-2.0513,0,-2.0513,6.667,1.0259,
-0.51294,0.51294,1.0256,-7.6926,-3.5896,24.1023,16.9231,-5.1282,-9.2307,-5.1282,1.0256,-0.51294,5.6409,0.51294,
-2.0513,-4.6152,-4.1025,-5.6411,-1.5386,25.1284,16.9233,-3.0767,-6.1538,1.5386,7.1797,2.564,8.2051,4.1025,
-6.6667,-6.1536,-9.2307,-11.282,-14.8718,21.5388,10.2566,-1.0256,-5.1282,2.0515,5.1282,1.0256,9.7439,3.5901,
-10.5127,-1.7949,-0.76904,-8.4614,-25.8975,16.6665,8.9741,0.76904,-3.8462,-0.76904,7.436,3.8462,11.0254,4.8716,
-10,-3.8462,3.8462,-4.8721,-14.1025,10.5127,13.5898,-3.8462,-6.4102,-1.2822,2.3076,1.2822,8.9741,3.8462,
3.0771,-3.5898,0,-5.6411,0.89746,5.1284,15.8975,-8.2051,-11.7949,0.51269,-7.6924,-2.564,5.1284,0,
14.8721,0,1.0259,-7.6924,15.8975,0,16.4102,-8.2051,-8.7178,0,-3.5898,0.51269,6.1538,-1.0254,
19.2305,2.8203,2.8203,-9.4873,29.4868,-1.7949,15.1279,-6.9233,-8.9746,-2.8208,-2.3076,0.25635,6.4102,-0.25635,
26.4102,5.8975,0.25635,-7.9487,38.7178,2.8203,13.0767,-6.4102,-12.5645,-1.2822,-7.436,-2.8208,4.8716,-0.25635,
26.4099,5.8972,0.76929,-3.3333,32.5642,6.9231,11.0256,-11.5388,-13.0769,-0.76929,-6.4104,-2.8206,3.8459,-1.7952,
23.3333,4.3591,4.3591,-1.282,29.4871,1.7947,7.9485,-14.1028,-16.6667,-4.8718,-5.8972,-3.3333,1.282,-4.3591,
28.4614,4.8716,6.9229,-0.76953,35.6411,-2.3076,15.6411,-6.4106,-13.5898,-2.3076,0.25635,-1.7949,7.9487,-0.25635,
21.0256,3.0769,3.5896,-1.5383,28.718,0.51294,15.3845,-10.2566,-11.282,-1.0256,-0.51294,-3.0769,8.2053,-1.0256,
11.5388,4.3591,1.282,-1.282,25.8977,1.7952,9.4871,-14.1023,-10.5129,-2.3074,-8.4612,-5.3845,1.7952,-5.3845,
20.2563,8.4614,6.4102,-1.7949,29.4873,-0.25635,16.1538,-4.8716,-8.4614,0.25635,-2.8203,-0.25635,7.436,-1.7949,
20,8.2051,8.2051,-2.0513,27.6924,-1.0254,12.8208,-7.6924,-14.3589,-3.0767,0,0,7.6924,-3.0767,
16.4104,7.1794,13.3333,0.51294,29.2307,-0.51294,11.282,-12.8206,-9.2307,-0.51294,-3.5896,-1.5383,5.6409,-3.5896,
17.949,-0.51294,9.7434,-7.6921,25.1282,-7.1794,13.8459,-10.7693,-3.5896,2.5642,-4.6155,-3.0769,7.6921,0.51294,
18.2048,-2.3079,1.282,-11.5388,19.7434,-7.4363,14.1023,-11.0256,-6.9231,1.7947,-1.7952,-1.282,8.9744,2.8206,
14.3589,1.5386,0.5127,-5.6411,19.4873,-1.5386,13.8462,-16.9233,-6.1538,2.0513,-0.51269,-0.51269,6.1538,-2.0513,
10.5127,0.76904,-0.25635,-10,21.2822,0.25635,11.5386,-15.1284,-7.436,0.25635,-3.3335,-2.3076,1.2822,-5.8975,
14.6152,-0.25635,0.25635,-15.1284,28.9741,1.7949,16.6665,-6.9229,-6.9229,-0.76904,0.76904,-0.76904,3.3335,-0.76904,
17.9487,0,0,-15.8975,33.333,3.0767,18.9741,-10.2568,-6.667,1.0254,-0.51318,-1.0259,5.6406,0,
15.1284,1.2822,-0.25635,-13.5898,21.2822,1.2822,16.667,-15.6411,-10,0.25635,-2.8203,-2.3076,6.4102,-3.8462,
16.9233,2.0513,4.1025,-8.7178,11.7949,-0.51269,20,-12.3076,-7.1797,-3.5898,0.5127,-1.0254,8.2051,-4.6152,
22.5642,3.5896,6.6667,-5.6414,20.5129,-2.5642,19.4871,-10.7693,-5.6414,-2.5642,-0.51294,0.51294,7.1794,-1.5383,
17.9487,0,3.5894,-11.7949,18.9741,-10.2568,16.4102,-16.4106,-7.1797,3.5894,-0.51318,-3.0771,9.2305,0,
8.2048,-1.0256,4.6155,-16.4104,7.6921,-13.8464,17.4358,-15.8977,-4.1028,6.6667,1.0256,-2.0515,13.3333,-4.6155,
4.3589,-0.76904,3.3335,-16.6665,4.8716,-12.564,15.6411,-14.1025,-3.3335,0.76904,-1.2822,0.76904,10.5127,-6.9233,
6.6665,-3.5898,-1.5386,-15.3848,4.6152,-11.2822,15.8975,-13.3335,0,0,1.5386,2.0513,13.3335,-2.0513,
5.8977,-3.3333,-4.8718,-12.5642,-6.4104,-9.9998,15.1282,-11.0256,1.282,3.3333,3.3333,1.7952,13.5896,-1.282,
3.8462,-2.3076,0.25635,-10.5127,-6.4102,-6.9229,15.1284,-11.5386,-0.25635,7.436,2.8208,5.3848,12.0513,-1.2822,
2.3074,-7.4363,2.3074,-17.1794,-1.282,-11.0256,11.5383,-16.1541,-6.4104,3.3333,3.3333,1.282,9.9998,-1.282,
2.564,-8.2051,1.5386,-15.3848,-14.8721,-14.3589,8.2051,-15.8975,-8.2051,0.5127,2.564,3.0767,8.7178,-0.5127,
0,-9.231,2.564,-9.7437,-22.564,-12.8203,10.769,-14.3589,-4.1025,2.564,1.5386,5.6411,10.2563,0,
2.5642,-9.7439,1.5383,-12.3079,-7.564,-10.7693,14.8718,-15.8977,-4.6155,1.5383,2.5642,-3.5896,11.282,-1.5383,
14.1023,-5.3845,0.25659,-16.6667,7.436,-10.0002,15.1282,-15.6409,-5.3845,0.76929,2.8206,-5.8977,10.5129,-0.25659,
16.4102,-6.1543,0,-23.0771,22.436,-20,16.9229,-16.4106,-3.5898,1.0254,1.5381,0,10.769,-1.0259,
13.0769,-8.9744,0.25659,-24.8718,34.1023,-31.0256,20.7693,-20.2566,-4.3591,-0.25659,2.3079,1.7947,9.9998,-3.8459,
18.4612,-7.6926,4.615,-20.0002,45.6409,-31.7952,20.5125,-19.4875,-4.6155,1.0256,8.2048,-1.0256,11.282,-6.6667,
21.7952,-5.3845,7.4358,-13.0769,40.7693,-27.9487,18.2053,-14.6155,-2.8206,2.8206,8.9744,-5.3845,11.0256,-9.9998,
19.4871,-3.0769,7.6921,-10.2566,44.6155,-19.4871,23.5896,-11.7947,-1.5383,1.5383,2.5642,-3.5896,11.282,-7.1794,
16.6665,-7.436,3.3335,-13.5898,46.4102,-19.7437,26.9233,-14.6152,-2.8203,0.25635,1.2822,-0.25635,12.564,-0.76904,
14.3591,-10.2566,1.5383,-13.8464,33.3333,-24.6155,17.9485,-17.4358,-6.6667,-0.51294,1.0256,0.51294,7.1794,-0.51294,
20,-1.0254,10.2563,-4.6152,36.9233,-16.4102,16.4102,-15.3848,-4.1025,0,3.5898,0,6.6665,-3.0767,
18.718,2.8206,12.0515,-0.76929,40.7693,-14.6155,16.6667,-18.2053,-7.9485,0.25659,-0.25659,-4.3591,6.9231,-6.9231,
16.1541,0.76929,14.1028,-0.76929,32.5642,-15.6409,15.6409,-19.2307,-11.0256,2.8206,-5.8972,-2.8206,7.9485,-1.7947,
19.4873,0,16.9229,-2.564,26.6665,-15.8975,18.4614,-14.8721,-2.0513,4.6152,0,-1.5386,12.3076,-1.0259,
18.4617,-3.5901,6.6667,-12.3079,28.718,-24.1028,19.4871,-13.8464,-1.0256,1.0256,3.5896,-10.7693,10.7693,-10.2566,
18.9744,-5.6409,1.0256,-19.9998,37.4358,-24.1025,22.5642,-12.8206,-1.0256,5.1282,3.0769,-6.6667,11.282,-6.1541,
21.7949,-2.8208,2.3076,-16.667,40.769,-13.5898,20.769,-14.6157,-1.7949,4.8716,-2.3076,-1.7949,10,1.7949,
24.3591,5.8972,2.8206,-4.8718,43.8459,-9.4871,21.7947,-15.1282,-6.9231,-0.76929,-4.8718,-6.4104,7.9485,0.76929,
18.9746,3.5898,1.5386,-4.6152,45.1284,-14.3589,25.6411,-16.9229,-5.1279,2.0513,-1.5386,-6.1538,6.6665,-4.1025,
13.3333,-4.1028,2.051,-11.7952,41.0256,-15.3845,21.0256,-18.9744,-1.0256,6.6667,1.0256,-1.0256,3.5896,-4.1028,
14.1025,-5.3848,-0.25635,-16.1538,32.0513,-13.0771,16.6665,-18.2051,0.25635,3.3335,2.3076,-1.7949,3.8462,-2.3076,
14.6155,-3.3333,-1.282,-15.6409,25.8972,-15.1282,21.282,-15.6409,0.25659,2.3079,3.8459,-0.25659,9.9998,-0.25659,
11.2817,-6.1538,-2.5645,-12.3081,21.0254,-18.9746,16.4102,-16.9233,-3.5898,6.6665,2.0513,4.1025,8.2051,-2.0513,
12.0513,-10.5132,2.3076,-5.3848,17.6924,-21.2822,11.5386,-17.6924,-5.8975,2.3076,-2.3076,3.333,5.3843,-5.8975,
18.4617,-3.5896,13.3333,0.51294,24.6155,-23.0769,17.9485,-12.3079,-4.6155,-5.6414,-0.51294,2.5642,8.718,-0.51294,
14.3586,-5.1287,10.7688,-8.718,23.0769,-24.6157,23.0769,-12.8206,-6.1541,-3.0769,3.5896,1.0256,11.282,-1.0256,
10.5125,-12.5642,2.3074,-16.6667,16.6667,-22.8206,22.8206,-16.6667,-6.4104,1.7947,1.282,-1.282,8.9744,-6.9231,
17.6924,-5.8975,2.3076,-8.9746,23.333,-14.1025,23.8462,-12.5645,-2.3076,2.3076,-2.3076,3.333,9.4868,-2.3076,
18.9744,-2.0515,4.1023,-5.1282,31.282,-9.7439,23.5896,-15.385,-3.5901,-1.0256,-3.0769,7.6921,9.7434,1.0256,
18.4614,0,6.6665,-3.0771,35.8975,-7.1797,22.0513,-17.436,-8.7183,0,-1.5386,9.7437,8.2051,-0.5127,
17.436,-2.564,4.1025,-7.6924,25.1284,-11.7949,17.9487,-14.3589,-9.7437,1.5386,-2.564,3.0771,5.1284,-1.5386,
14.1025,-6.9229,3.8462,-14.1025,17.1797,-18.7178,21.2822,-14.6152,-3.3335,3.3335,-0.25635,-1.2817,9.4873,0.25635,
6.9231,-9.4871,1.7947,-14.6155,23.3333,-22.3079,20.7693,-17.6921,-2.8206,3.8459,-0.25659,0.25659,13.5896,-1.282,
3.0767,-11.7949,-2.0518,-13.3335,26.1538,-22.5645,18.9741,-15.8975,-1.5386,4.6152,0,2.564,12.8203,0,
-0.5127,-14.3589,-2.564,-15.3848,22.0513,-18.4614,18.9746,-14.8716,0.5127,4.1025,-1.0254,3.5898,9.7437,0.5127,
-3.5898,-12.8203,0.5127,-13.3335,22.564,-13.8462,21.0259,-14.3589,-1.5386,5.6411,0.5127,4.1025,12.3076,-0.5127,
-5.8975,-13.5898,-0.25635,-12.564,23.3335,-14.1025,22.3076,-13.0767,-5.3848,4.8721,0.25635,1.2822,14.6152,3.8462,
-6.4102,-11.0254,3.8462,-11.5386,27.9487,-7.9487,23.3335,-10,-2.3076,4.8721,-2.3076,2.3076,13.5898,2.3076,
-4.6155,-8.2053,5.6409,-11.282,31.7947,-6.1541,25.6409,-12.8206,2.5642,5.1282,-2.5642,5.6409,11.7947,-9.7439,
3.8462,-6.4102,1.2822,-10.5127,33.0767,-8.9746,21.7949,-15.6411,-3.3335,1.2822,-1.2822,4.8716,11.0254,-9.4873,
14.1025,-0.76904,8.4614,-5.8975,38.2051,-5.3848,19.231,-15.6411,-11.5386,-1.7949,0.25635,-0.25635,8.4614,0.25635,
13.3335,4.1025,15.3848,-4.6152,39.4873,-1.5386,20.5127,-19.4873,-12.8208,-4.6152,-5.1284,1.5386,4.6152,-2.564,
7.9487,1.7949,6.9229,-8.9746,35.1279,-1.7949,15.1279,-22.8208,-13.5898,-8.4614,-14.1025,7.9487,1.7949,-5.8975,
11.2822,-0.5127,1.0259,-6.6665,33.3335,-1.5386,18.9746,-19.4873,-6.6665,-4.1025,-7.1792,6.6665,6.6665,0.5127,
15.1284,2.8208,-1.2817,-0.25635,34.6157,-0.76904,22.3076,-17.1792,-5.3843,0.25635,0.76953,-1.7949,7.436,-0.76904,
10.769,7.6924,-1.0254,2.564,38.9746,0.5127,17.9487,-16.4102,-8.7178,-2.564,-1.0254,-0.5127,6.1538,-3.5898,
2.5642,0.51294,-1.0256,-0.51294,33.3333,-4.1028,18.9744,-15.8977,-1.5383,-4.1028,2.5642,3.5896,10.7693,-1.0256,
0.25635,-5.8975,-2.8203,-2.3076,23.8462,-5.8975,22.3076,-14.6152,1.2822,-0.76904,4.3589,1.7949,10.5127,-0.25635,
1.5381,-7.1797,0,-3.5898,25.1279,-5.1284,24.1025,-15.8975,-3.0771,1.0254,0,0.5127,9.2305,-1.0259,
1.0259,-9.231,4.6152,-6.6665,28.7178,-11.2822,25.1284,-17.436,-3.5898,0.5127,-1.5386,1.5386,12.8203,-0.5127,
-1.0256,-9.7434,3.5896,-5.6409,25.6409,-15.3845,22.0515,-17.9485,-6.1541,-0.51294,0.51294,2.5642,12.8206,1.5383,
0.25659,-6.4104,2.3079,-2.3079,30.5129,-6.9231,22.3079,-16.6667,-3.8459,0.25659,3.3333,-0.76929,10.5129,-0.25659,
-0.25635,-2.3076,0.76904,-3.8462,35.1279,1.2817,20.769,-17.6924,-2.8208,-2.3076,0.25635,0.76904,6.4102,-3.8462,
1.5381,-1.5386,-0.51318,-6.1538,30.2563,0,22.0513,-18.4619,-7.1797,-3.0771,2.564,10.769,6.6665,0,
2.564,-6.1538,-2.0513,-10.7695,28.2051,-2.5645,22.0513,-19.4873,-12.3081,-2.5645,2.0513,12.8203,7.6919,2.0513,
2.8206,-7.9485,0.76929,-11.0256,34.6155,1.282,19.7434,-19.7434,-10.0002,-3.3333,-4.3591,11.5383,5.3845,-0.76929,
2.564,-9.7437,0.5127,-13.8462,32.3076,0,18.9746,-19.4873,-6.1538,-0.51269,0,9.231,6.6665,-3.0767,
-1.0256,-7.1799,-1.0256,-15.8977,25.6409,-3.0769,19.9998,-14.3591,-6.1541,9.2307,6.6663,6.6663,12.3074,1.0256,
-7.436,-4.3594,0.25635,-10,20.769,-7.436,21.2817,-12.5645,-1.2822,11.0254,-0.25635,4.3589,12.564,2.3076,
-5.6409,-3.5896,8.2053,-1.0256,18.9744,-12.3079,21.5383,-15.8972,-1.0256,2.0515,-7.6921,3.5896,9.2307,1.0256,
-0.76904,0.25635,15.1284,6.9229,17.1797,-12.564,16.6665,-16.6665,-7.9487,-3.3335,-7.9487,1.7949,7.436,-0.25635,
0,2.0513,15.3848,7.6924,14.3594,-8.2051,12.8208,-16.9229,-6.6665,-1.5381,-8.7178,0,7.6924,-2.0513,
6.1536,1.0256,12.8206,6.6663,14.3586,-3.5901,12.3074,-18.4617,-7.6926,-3.5901,-9.7439,-1.0256,2.5637,-3.5901,
12.3076,0.5127,10.769,10.2563,23.0771,-1.5386,15.8975,-20,-12.3076,-4.6152,-5.6411,-0.5127,3.0771,-3.5898,
3.5896,1.0256,9.2307,8.2053,27.6921,-6.6667,19.4871,-23.0769,-11.7947,-1.5383,-4.6155,-1.0256,7.1794,-3.5896,
3.0767,2.564,6.6665,2.564,29.7432,-7.6924,16.9229,-23.5898,-11.2822,-3.0771,-11.7949,-2.0513,2.0513,-5.6411,
7.9487,-0.25635,1.7949,-2.3076,26.4102,1.2822,14.1025,-20.769,-10.5127,-6.9229,-11.0254,1.2822,0.25635,-6.4102,
2.3074,-2.3079,-4.8718,-4.3591,18.2048,6.9231,17.1794,-19.7439,-5.8977,-1.7952,0.76929,7.4358,8.9744,-0.76929,
-4.6155,-4.6155,-10.7693,-11.282,13.3333,0.51294,16.4104,-21.5383,-6.1541,2.051,0.51294,2.5642,9.2307,-0.51294,
1.282,-3.3333,-2.3074,-13.0769,19.2307,-1.282,19.2307,-16.1536,-2.3074,2.8206,-2.8206,1.7952,11.0256,1.282,
-1.7952,-5.8977,2.3074,-13.5901,20.2561,0.76929,19.7434,-15.1282,-3.3337,-0.76929,-4.3591,4.8718,11.5383,2.8206,
-5.8977,-6.4104,5.3845,-10.0002,19.7434,0.76929,25.3845,-15.6409,-3.3333,-0.76929,-1.7952,7.9485,13.5896,5.8972,
-1.0256,-3.5896,6.6667,-6.1541,15.8972,-5.1282,25.1282,-14.8718,-3.0769,1.0256,-3.0769,7.1794,13.3333,6.1541,
0.5127,-7.6924,2.0513,-8.7178,7.1797,-11.7949,14.8716,-17.436,-5.6411,-0.5127,-9.7437,3.5898,8.7178,0.5127,
3.5901,-5.6409,7.6926,-1.0256,13.3333,-2.051,17.4363,-16.9231,-4.1023,1.0256,-7.6921,2.0515,8.718,-1.0256,
1.5386,-0.5127,9.2305,3.5898,17.9487,0.5127,17.436,-21.0259,-13.8462,-5.6411,-10.2563,-1.0259,1.5386,-5.6411,
1.0256,-1.0256,3.5901,2.5642,10.7693,-6.1536,16.4104,-22.051,-13.8459,-5.6409,-6.6663,5.6414,1.0256,-3.5896,
2.564,-3.0771,-1.0259,0.5127,3.5894,-2.0513,15.3843,-21.0259,-6.667,0,-2.5645,11.7944,6.6665,0,
4.8718,0.76929,-1.282,-0.76929,6.9231,1.7947,16.6667,-22.8206,-10.0002,-1.7947,-4.8718,7.4358,6.9231,-1.7947,
14.1028,1.282,0.76929,-0.76929,18.2053,-2.8206,22.8206,-22.3074,-12.051,-4.8718,-2.8206,6.4104,6.4104,-1.7947,
12.3079,-2.0515,2.051,1.5383,22.051,-2.0515,16.9231,-19.4871,-10.7693,-6.1541,-1.5383,13.8459,3.5896,-1.5383,
2.0515,-3.5896,2.5642,-0.51294,14.3591,0.51294,13.3333,-17.9485,-9.2307,-5.1282,-1.0256,14.3591,6.1541,-0.51294,
0.25659,-5.3845,0.76929,-10.5129,8.9744,-4.3591,19.7434,-18.2053,-8.4617,-1.282,-0.25659,3.8459,12.5642,1.7947,
1.0256,-8.718,0.51294,-12.3079,13.8459,-3.0769,20.0002,-17.9485,-7.6921,-0.51294,-2.051,1.0256,11.7947,3.5896,
-0.76904,-11.0259,0.76904,-4.3589,13.5898,1.7949,17.1797,-17.1797,-5.3848,-1.7949,-2.8203,11.5386,8.4614,2.8203,
-1.0256,-3.5896,-2.5637,3.5901,13.8464,8.2053,14.8718,-17.9485,-8.2048,-4.1023,-6.1536,17.4363,7.1794,1.0256,
-1.282,0.76929,-1.282,3.3333,17.1794,9.4871,11.5383,-20.7693,-14.1028,-8.9744,-13.0769,5.8972,1.7947,-0.76929,
4.6155,-2.051,10.7693,2.0515,15.8977,0.51294,14.8718,-21.0256,-11.7947,-6.1536,-9.7434,-2.5642,2.5642,-0.51294,
14.6152,-0.76904,12.564,0.25635,18.7183,-3.8462,17.6924,-20.2563,-10.5127,-1.2817,-3.333,0.25635,8.9746,-0.25635,
18.4617,3.0769,7.1794,-2.5642,22.5642,-5.6409,17.4358,-23.5896,-8.2053,-2.5642,-4.1023,1.5383,9.7434,-1.5383,
12.3076,1.5386,10.2563,0.5127,15.8975,-12.3076,13.3335,-27.1797,-6.6665,-5.6411,-8.2051,-0.5127,2.564,-3.5898,
9.231,-1.5386,10.2563,2.564,7.6924,-6.1538,11.2822,-27.1792,-7.6924,-3.0767,-7.1792,4.1025,1.5386,-2.0513,
7.1794,-2.0515,1.0256,-4.6155,5.6409,6.1536,11.282,-24.6155,-7.6921,-1.0256,-4.6155,9.2307,5.1282,-3.5896,
4.6155,0.51294,-7.1794,-8.718,5.6409,14.3591,11.282,-21.0256,-6.6667,-0.51294,-2.051,6.6667,6.1541,-1.5383,
1.2817,0.25635,-13.5898,-3.3335,-8.4619,25.3843,12.564,-19.231,-4.3589,-0.76953,-0.25635,10,4.8716,6.9229,
-7.4358,0.76929,-15.1282,2.8206,-23.4619,39.2307,8.9744,-16.1536,-3.3333,-0.76929,-5.3845,17.1794,3.8464,8.9744,
-15.1282,2.3079,-12.0515,-1.7947,-38.4619,43.3333,8.4617,-14.1028,-2.8206,1.7947,-6.9231,9.4871,5.8972,8.4617,
-10.5129,1.7952,-13.5896,-2.3074,-39.7434,42.3079,12.0515,-14.1023,-2.3074,1.282,-1.282,2.3079,9.4871,10.0002,
-2.8203,2.8203,-15.6411,5.3848,-43.3333,39.7437,5.8975,-15.6411,-7.436,-5.3848,-7.436,10,4.8716,3.8462,
-0.25635,4.8721,-5.3843,8.9746,-45.8972,39.7437,7.436,-15.1279,-7.4355,-4.3589,-10.5127,10.5127,4.8721,0.25635,
-0.25635,4.3589,0.25635,4.3589,-35.6411,40.2563,10,-16.667,-8.9746,-3.3335,-8.4619,-0.76953,4.3589,1.7949,
2.5642,6.1541,-2.5642,2.0515,-34.3589,35.3845,8.2053,-14.3591,-8.2053,-2.051,-5.1282,-0.51294,5.1282,0.51294,
4.6155,8.2053,-7.1794,1.0256,-43.0769,31.282,7.1794,-15.3845,-5.1282,-1.0256,-3.0769,2.0515,7.1794,-3.0769,
3.3333,7.9485,-4.8718,1.282,-37.6924,32.051,6.4099,-21.282,-9.4875,-4.8718,-8.4617,1.282,2.3074,-1.282,
0,3.5898,0.51318,0,-37.9485,28.7183,6.667,-20.5127,-9.2305,-4.1025,-4.6152,8.2051,2.5645,-1.0254,
-1.2817,1.7949,-6.9229,-2.3076,-46.9231,26.4102,6.9233,-16.6665,-3.333,-0.25635,6.4102,11.5386,7.9487,0.25635,
-0.76929,0.76929,-17.6926,-2.3079,-40.2566,29.4871,4.8718,-18.718,-3.8464,-0.76929,1.282,8.9744,5.8972,8.4612,
0.76929,-0.76929,-14.6155,-1.7947,-32.5642,30.5129,7.9485,-16.1541,-1.7947,0.76929,-1.282,17.1794,7.4358,13.0769,
-8.2053,-5.1282,-13.3333,-5.1282,-41.5386,25.6409,4.6155,-13.8464,-0.51294,0.51294,4.1023,16.4104,6.6667,10.2561,
-15.8975,-9.231,-13.3335,-3.5898,-43.5896,25.1284,0.5127,-16.4102,0,0,4.1025,7.6924,5.1284,8.2051,
-11.7952,-4.1028,-11.7952,2.051,-37.436,26.6663,2.051,-18.4617,-1.0256,1.0256,-6.1541,11.7947,4.615,11.282,
-4.8718,0.76929,-15.6409,4.8718,-37.1794,27.9485,3.3333,-18.2053,-6.4104,-0.76929,-11.0256,15.1282,2.3079,12.5642,
-1.2822,-1.7949,-12.0513,4.8716,-38.2053,28.4614,4.8716,-17.6924,-4.3589,-0.25635,0.25635,6.4102,6.9229,10.5127,
-2.0513,-3.0767,-1.0254,5.6411,-42.0513,22.564,4.6152,-18.9741,-0.5127,0,5.1284,0,8.7178,4.1025,
-2.5642,-2.5642,5.1282,7.6921,-43.0769,19.4871,3.5896,-23.0769,-2.0515,-1.0256,1.0256,2.5642,1.5383,-1.5383,
-0.51294,1.0256,0.51294,7.6921,-37.436,24.6155,3.5896,-22.5642,-7.1794,-0.51294,-2.5642,1.0256,-1.0256,0.51294,
0.76904,3.8462,-11.0259,1.7949,-35.6411,26.9229,3.3335,-16.6665,-7.9487,-0.76904,-6.4102,-5.3848,1.7949,2.8203,
2.3076,2.8203,-14.6152,0.25635,-33.5898,25.3848,8.9741,-14.6152,-0.76904,-1.7949,-3.3335,-0.25635,6.9229,2.8203,
0.51294,-1.5383,-13.8459,4.6155,-32.3076,22.5642,7.6921,-19.4871,-0.51294,-3.0769,-1.0256,5.1282,5.1282,0.51294,
-0.51294,-3.0769,-13.8464,1.5383,-33.3335,17.4358,3.5896,-19.4871,-2.0515,0.51294,-2.5642,3.5896,4.1023,4.6155,
-0.25635,-1.7949,-9.4873,0.25635,-34.1025,17.1797,2.8208,-16.1538,-0.76904,1.2822,-2.3076,2.8208,4.8721,12.564,
-0.51269,2.564,-5.1279,8.2051,-35.3845,25.6411,4.1025,-16.4102,-4.1025,-2.564,0,3.0771,0,11.2822,
0.25659,2.3079,-4.8718,9.9998,-39.2307,25.8972,7.4358,-18.2053,-5.8972,-3.8459,-2.8206,1.7947,-0.25659,5.3845,
6.4102,0.25635,-2.3076,3.8462,-36.6667,19.7437,6.4102,-17.1797,-4.8721,-2.8208,-8.4619,-0.25635,1.2817,2.3076,
10,3.3335,-1.2817,0.25635,-33.5896,18.7183,4.8721,-14.6152,-0.25635,-2.3076,-1.7949,-1.2817,2.8208,0.76953,
8.4614,4.8716,-2.8203,-1.2822,-33.5898,20.2563,5.8975,-16.1538,0.25635,-3.3335,6.4102,-1.2822,3.3335,-0.25635,
12.3076,4.6152,-2.5645,1.0254,-26.1538,18.9741,5.1279,-22.0513,-5.1284,-4.1025,2.0513,0,0,-1.0259,
17.6921,4.3591,-2.3079,8.9744,-22.3079,16.6667,9.4871,-21.7947,-3.3333,-1.7947,0.76929,-0.76929,1.7947,-1.282,
11.5383,5.8977,-5.8972,12.0515,-26.9231,17.1794,6.9231,-20.2561,-4.8718,-2.3074,-1.282,0.76929,2.3079,-0.76929,
6.6663,8.2048,-7.1794,13.3333,-29.231,22.051,1.0256,-19.4875,-7.1794,-2.5642,-1.5388,9.7434,-1.0256,8.2048,
8.2051,2.0513,-9.7437,11.2822,-28.2051,20,0,-22.0513,-7.6924,-4.6152,0,8.7183,-5.1279,8.2051,
10.5129,3.8464,-7.4358,14.1028,-27.9485,16.6667,1.282,-20.7693,-7.9485,-5.3845,-1.282,5.8977,-2.8206,4.3591,
2.0515,3.0769,-3.5896,17.4358,-42.9485,9.7434,-1.0256,-19.4871,-6.6667,-3.5896,-1.0256,3.5896,1.0256,5.1282,
-3.3333,0.25659,-4.3591,19.7434,-55.6411,3.3333,-3.3333,-17.1794,-2.3079,-0.25659,1.7947,3.3333,1.7947,12.051,
6.6665,4.1025,-3.5898,16.4102,-40.6411,2.0513,0.5127,-15.8975,-2.564,-3.0771,-2.564,2.0513,-0.51269,9.7437,
16.4099,5.6409,2.051,8.7175,-25.6411,-2.0515,8.7175,-20.0002,-6.1541,-3.5901,-3.0769,-1.0256,1.0256,1.5383,
20.7695,3.3335,-0.25635,4.8721,-10.6411,-11.0254,6.9233,-21.7949,-8.9741,-2.8203,0.25635,-4.8716,1.2822,-0.76904,
29.9998,3.8459,0.76929,6.9231,4.3589,-16.1541,5.3845,-21.7947,-6.4104,-6.4104,-0.25659,-5.8972,0.25659,-0.76929,
37.1792,8.9741,12.0513,15.1279,19.3589,-12.5645,14.1025,-22.3076,-5.8975,-5.3848,-4.3589,-0.25635,0.25635,-1.2822,
31.7949,7.1797,14.3589,16.4102,34.3589,-10.2563,15.3848,-22.0513,-12.3076,-5.6411,-8.2051,1.5386,-2.0513,-1.5386,
30,3.8462,6.9229,12.564,38.7178,-11.0259,14.1025,-19.231,-6.4102,-8.4619,-3.8462,-0.76953,0.25635,-0.25635,
25.6409,5.6409,0.51294,11.282,37.4358,-10.7693,11.7947,-21.5383,-2.051,-7.1794,-0.51294,-4.1023,0.51294,-0.51294,
14.6155,2.8206,-4.8718,8.9744,35.1282,-13.0769,9.4871,-24.3591,-5.3845,-1.282,1.282,-2.3079,2.3079,-1.282,
12.5642,3.3333,-0.25659,12.5642,34.6155,-12.5642,11.0256,-19.2307,-9.4871,-0.76929,-1.7947,0.25659,2.3079,-1.282,
14.6152,5.3848,6.9229,16.6665,31.5386,-8.4614,11.0259,-20.2563,-12.564,-4.3589,-10.5127,-1.2822,-4.3589,1.2822,
11.0259,-0.25635,3.8462,12.0513,27.436,-11.5381,7.9487,-27.4355,-8.4614,-5.8975,-10.5127,0.25635,-5.3843,3.8462,
10.5129,1.7947,4.3591,11.5383,28.9744,-12.0515,6.4104,-26.9231,-5.3845,-5.8972,-5.8972,-1.282,-0.76929,0.76929,
17.9485,6.1536,12.3074,16.4104,31.7947,-7.1794,13.3333,-20.0002,-2.5642,-2.0515,-3.5896,-2.5642,1.0256,-1.0256,
17.9487,2.564,13.8462,10.769,29.7437,-11.7949,13.8462,-16.4102,-3.0771,-1.0259,-4.1025,0.5127,-0.5127,-0.5127,
13.0767,1.2817,9.4868,5.3843,29.4868,-19.7437,6.9229,-17.1797,-6.9233,-5.3848,-5.3848,0.25635,-0.25635,-0.76953,
12.8203,3.0767,7.1792,7.1792,27.6924,-17.436,10.769,-21.0259,-4.6152,-5.1284,-2.564,-1.5386,0.5127,-0.51269,
11.5381,0.76904,1.7949,7.4355,19.7437,-13.5898,12.564,-24.3589,-3.8462,-3.3335,-1.2822,0.25635,-4.3589,-0.25635,
11.7949,-0.51269,0.5127,10.2563,16.4102,-15.8975,12.3076,-22.0513,-4.1025,-2.564,0.5127,1.0254,-4.1025,-3.5898,
10,0.76904,1.2822,12.564,19.231,-17.1797,12.0513,-19.7437,-0.76904,-1.7949,-2.3076,-3.8462,1.2822,-2.8203,
2.3076,-3.3335,-0.25635,8.4614,18.2051,-21.2822,8.9741,-20.769,-1.7949,1.2822,-6.4102,-2.3076,2.3076,0.25635,
-0.25635,-6.4106,0.25635,3.333,14.6152,-24.3591,10.5127,-22.3076,-2.3076,2.8203,-1.2822,1.7949,3.8462,-1.2822,
2.3076,-0.76904,-1.2822,3.8462,18.7178,-18.7178,12.0513,-21.2822,-0.76904,0.76904,0.76904,-1.7949,5.8975,-1.2822,
0.51294,1.5383,4.1028,6.1541,21.0256,-16.9231,9.7434,-19.4871,-3.5896,-2.051,-3.0769,-6.6667,3.5896,-0.51294,
5.1279,1.5381,15.3843,9.7432,18.4614,-17.9487,9.7432,-20,-4.1025,-2.0513,-0.51318,-4.1025,0,0,
6.9229,-0.76953,10,5.3843,16.6665,-17.6924,8.4614,-22.3076,-3.3335,-3.3335,0.25635,0.76904,-0.25635,-0.25635,
0.51294,-5.1282,-0.51294,-1.5383,16.9231,-16.9231,9.2307,-23.0769,-2.5642,-1.5383,1.5383,5.1282,4.6155,1.0256,
-2.8206,-5.8972,-0.76929,1.282,15.6409,-17.6921,8.9744,-21.7947,-5.8972,0.76929,0.76929,5.3845,-0.76929,0.76929,
0.76953,-3.8462,2.3076,6.4102,16.1538,-16.1538,5.8975,-21.2817,-3.8462,0.76953,-2.3076,0.25635,-3.8462,-0.25635,
1.5381,-6.667,3.0767,0,12.8203,-20.5132,5.6406,-22.0513,-3.0771,0,-1.0259,-0.51318,3.5894,2.0513,
-3.0767,-9.7437,1.5386,-5.1284,7.6924,-28.2051,7.1797,-21.5386,-9.231,0,0,3.5898,3.5898,2.0513,
-2.564,-7.6924,-4.1025,0,11.2822,-23.0769,8.7183,-17.9487,-7.6924,2.0513,0,3.5898,3.0771,0.51318,
-1.2822,-6.4102,-5.8975,4.3589,11.0254,-17.6924,3.8462,-15.1284,-5.8975,1.2822,-3.3335,1.7949,5.3848,1.2822,
-4.1028,-8.2053,1.0256,3.5896,7.6921,-20.0002,2.5637,-14.8718,-6.1541,-1.0256,-4.1028,3.0769,4.1023,2.5637,
-7.436,-8.9746,2.3076,0.25635,13.5898,-20.2563,8.4614,-16.6665,-2.8203,-0.25635,0.25635,0.25635,1.2822,-0.76904,
-4.6155,-5.6409,-0.51294,3.5896,17.4358,-13.3333,6.1541,-19.9998,-4.6155,1.0256,3.0769,-3.0769,0.51294,1.0256,
-0.51294,-4.1028,-3.5896,8.2048,15.8972,-8.2053,0.51294,-20.5129,-8.2053,0.51294,1.5383,-1.5383,2.051,3.0769,
2.051,-2.5642,-0.51294,9.7434,27.6921,-4.1028,0.51294,-16.9231,-9.7439,1.0256,-2.5642,2.5642,-0.51294,0.51294,
3.0771,0.5127,5.1284,9.7437,35.3848,-2.0513,3.5898,-16.4102,-10.769,-2.0513,-4.6152,-0.5127,-7.1792,2.564,
3.0769,1.5383,5.6409,7.1794,23.5896,-5.1282,7.6921,-18.4617,-8.718,-1.5383,-2.0515,-5.1282,-7.1794,7.6921,
0,0.5127,-0.51318,4.6152,18.9741,-7.1797,3.0767,-19.4873,-11.2822,1.5381,0,-6.1538,-3.5898,1.5381,
1.7947,-1.282,0.25659,9.9998,27.4358,-5.3845,5.3845,-17.1794,-7.949,1.7947,3.8459,-3.3333,-0.25659,-1.282,
5.1279,-1.5386,3.0767,13.8462,29.2305,-4.6152,11.2817,-14.8721,-4.1025,-0.5127,0.5127,-1.5386,-2.564,1.0254,
5.3848,4.3589,1.7949,12.0513,27.436,-3.8462,7.9487,-14.1025,-6.4102,-0.25635,-7.9487,-1.7949,-2.8203,0.25635,
0,4.1025,0,8.2051,23.0771,-5.6406,4.1025,-15.8975,-6.6665,0,-3.5894,-1.0254,1.0259,-2.564,
-1.2822,1.2822,-0.25635,9.4873,18.7178,-5.8975,7.436,-16.6665,-6.4102,-1.2822,5.3848,-1.2822,2.3076,0.25635,
1.7949,-0.25635,-0.25635,11.5386,14.6157,-5.3843,10,-17.6924,-7.9487,-1.2817,4.3589,-1.2817,0.25635,0.25635,
1.0254,0.5127,1.0254,11.7949,14.3589,-9.231,7.1792,-17.436,-8.7183,0.5127,-0.51269,-0.51269,-3.0771,-1.0259,
0.51269,1.0254,0,8.2051,16.9229,-12.8208,5.1279,-16.9233,-10.2563,-1.5386,0,-1.0259,-5.6411,1.5386,
8.2051,0,3.0771,6.1538,13.3335,-10.769,8.7178,-17.9487,-9.231,0,2.564,-3.0767,-2.564,-0.51269,
11.282,1.0256,7.6921,11.282,9.7434,-7.6921,4.1023,-22.0515,-10.7693,0.51294,-2.0515,-0.51294,-3.5896,-3.0769,
3.8462,0.25635,5.3848,12.5645,14.6157,-8.9741,-0.25635,-22.3076,-12.564,-3.8462,-5.3843,7.9487,-7.4355,3.8462,
-0.5127,-2.564,3.0767,5.6411,17.9487,-10.2563,4.1025,-17.9487,-9.7437,-4.1025,0.5127,7.1792,-2.564,9.7437,
1.0256,-5.6409,5.1282,2.5642,16.9231,-9.7434,4.6155,-17.4358,-10.2566,-1.0256,1.5383,-2.0515,-2.0515,4.6155,
-0.5127,-7.6924,6.1538,4.1025,17.9487,-12.8203,6.6665,-17.436,-8.2051,0.5127,0.5127,-3.0767,-2.0513,0.5127,
-0.25635,-4.3589,3.8462,6.4102,19.231,-13.5898,8.4614,-16.6665,-5.8975,-1.7949,-0.25635,2.3076,0.25635,0.76904,
2.8208,-0.76904,3.8462,7.9487,23.8462,-7.9487,5.3848,-17.1792,-8.4614,-4.8716,-1.2817,-0.25635,0.25635,3.3335,
-0.51294,-0.51294,3.0769,7.1794,25.6409,-8.718,4.6155,-18.9744,-11.282,-2.0515,1.5383,-6.6667,0.51294,4.1023,
-1.0259,0.5127,1.5381,5.1279,16.4102,-13.3335,2.0513,-21.5386,-16.9233,0,0,-6.667,-3.0771,3.0767,
10.5129,2.8206,11.0256,7.9485,16.6667,-9.4871,3.3333,-21.282,-13.5901,-3.3333,-5.3845,-2.8206,-4.3591,3.8459,
12.3079,0.51294,12.3079,12.8206,24.1028,-8.2048,5.1282,-18.4617,-9.7434,-6.6667,-7.1794,-3.0769,-0.51294,1.5383,
4.8718,-3.8464,3.3333,12.5637,17.1794,-16.6667,5.3845,-16.6667,-10.5129,-1.282,-1.7952,-4.8718,4.3586,1.282,
4.8718,-7.4358,1.282,4.3591,8.4617,-21.282,6.4104,-18.2053,-14.1028,-0.76929,-4.3591,-6.4104,2.8206,0.76929,
9.4868,-3.8462,7.4355,5.8975,17.6924,-14.1025,6.4102,-14.6157,-12.0513,-2.8208,-8.9746,-1.7949,1.7949,2.8203,
5.3843,-4.3589,2.3076,4.3589,20.769,-15.6411,2.8203,-16.667,-8.9746,-2.3076,-5.8975,-3.3335,2.3076,4.8716,
2.0515,-6.6667,-4.6155,2.5642,6.6667,-27.6924,2.5642,-17.9485,-6.6667,1.0256,-1.0256,-3.5896,2.5642,8.718,
0.5127,-5.1284,-0.5127,8.2051,-3.5898,-33.3333,5.6411,-13.8462,-4.1025,2.564,-1.0254,2.0513,2.564,10.2563,
5.8975,-2.3076,6.4102,14.1025,10,-18.3333,3.8462,-18.7178,-7.436,-2.3076,-3.3335,-0.76904,0.76904,5.3848,
9.2305,3.0767,2.564,14.3589,16.9229,-3.3333,-2.0513,-21.0259,-15.8975,-7.6924,-9.7437,-8.2051,-2.5645,2.0513,
1.2822,7.436,-0.76904,12.0513,1.9229,11.6667,0.76904,-10,-10,-1.7949,-6.4102,-3.3335,1.2822,7.436,
-11.7947,3.0769,-4.1023,7.1794,-13.0771,15.3845,-0.51294,-9.7434,-3.5896,2.0515,-0.51294,0.51294,2.0515,13.8459,
-12.5642,0.76929,-8.9744,7.9485,-28.0771,27.4358,-5.3845,-8.9744,-5.8977,1.282,-0.25659,0.25659,2.3079,15.1282,
-14.8721,0,-17.436,4.6152,-42.0513,29.2305,-5.6411,-6.667,-4.6152,2.0513,0,1.5386,5.6411,13.333,
-17.9487,1.5386,-20.5127,2.0513,-47.6924,21.0254,-6.1538,-10.2563,-3.5898,2.564,-1.5386,1.5386,4.6152,12.8203,
-13.0769,0.76929,-17.1794,5.8972,-44.8718,17.1794,-5.3845,-5.8972,-4.3591,0.76929,0.76929,-0.76929,4.3591,10.5129,
-13.0769,-0.76929,-15.6414,8.9744,-41.7949,18.2048,-2.3079,-1.7952,-1.7952,1.282,4.3586,0.76929,5.3845,11.0256,
-13.3335,3.0771,-16.4102,8.7178,-37.4358,20.5127,-5.6411,-9.231,-4.1025,-0.51269,1.0259,0.5127,2.0513,10.2563,
-3.5894,5.1284,-15.3843,11.2822,-35.8972,20.5132,-5.1279,-9.2305,-3.0767,0,3.0771,0,4.6157,11.7949,
-1.282,0.76929,-18.718,10.5129,-39.2307,17.1794,-2.3074,-2.8206,-5.3845,1.282,5.8977,-0.76929,4.8718,14.1028,
-7.949,-1.7952,-17.6926,11.0256,-41.2822,14.1023,-0.76929,-7.949,-6.9231,0.76929,4.8718,1.282,6.9231,12.5637,
-9.4873,0.25635,-15.6411,15.1279,-45.3848,11.5381,-3.3335,-15.6411,-5.3848,-0.25635,2.3076,2.3076,7.4355,11.5381,
-2.5642,4.1028,-16.9231,15.3845,-43.5896,15.8977,-7.6921,-11.282,-7.6921,-1.0256,1.0256,1.0256,4.6155,12.8206,
0.51294,2.051,-20.0002,11.7947,-33.3335,22.051,-4.6155,-6.6667,-7.6921,-0.51294,2.5642,-0.51294,5.6409,12.3079,
-2.3079,1.7947,-18.2053,15.6409,-27.4358,20.7693,-1.7952,-5.8977,-5.3845,-1.282,1.282,1.282,3.8459,11.5383,
-0.76953,3.333,-15.1284,23.333,-31.5386,18.7178,-2.3076,-6.4102,-4.8721,-0.25635,0.25635,3.333,2.3076,12.564,
0.76904,1.7949,-15.6411,22.3076,-33.0769,16.6665,-5.8975,-7.436,-5.8975,4.3589,-1.2822,-0.76904,3.8462,10.5127,
1.0256,4.615,-15.8977,22.5637,-26.1541,17.4358,-9.2312,-7.1794,-5.1282,3.0769,-1.0256,-3.0769,3.5896,11.282,
0.76929,6.4104,-14.6155,23.8464,-25.3845,20.7693,-8.4612,-8.9744,-4.3586,-1.282,2.8206,-0.76929,4.3591,11.0256,
0,4.6157,-12.8203,19.4873,-29.2305,19.4873,-6.6665,-8.2051,-6.1538,-0.5127,3.0771,0,3.5898,8.7183,
0.76929,3.3333,-11.5388,15.1282,-25.3845,14.6155,-3.8464,-7.4358,-4.3591,3.8459,-0.76929,-1.282,1.282,12.051,
0.25635,1.2822,-13.0771,11.0254,-26.9231,7.9487,-4.8716,-8.9746,-6.4102,2.8203,-0.25635,-3.3335,3.8462,11.0254,
-1.7947,0.76929,-15.1282,11.5383,-39.2307,6.9231,-11.0256,-4.3591,-11.0256,1.282,4.3591,-0.76929,6.9231,8.4617,
-2.3076,1.2822,-16.6665,10.5127,-36.6667,10,-8.4614,-6.4102,-10,0.25635,2.8203,-0.25635,1.7949,10,
