"AF3","AF4","F3","F4","F7","F8","FC5","FC6","O1","O2","P7","P8","T7","T8",
-31.5386,-25.8975,-12.0513,-15.6411,3.3335,21.7949,0.25635,-1.2822,-0.25635,7.436,14.1025,-2.3076,104.8716,5.3848,
-35.3845,-33.8464,-13.8464,-18.4617,11.7947,17.9485,-8.718,-5.1282,-6.1541,5.1282,15.8972,10.2561,105.1282,6.1536,
-36.1538,-36.1538,-13.5896,-15.1282,24.8718,20.2566,-12.5642,0.76929,-13.0769,-0.76929,19.7434,14.1028,108.9744,9.4871,
-47.6921,-44.1025,-16.4102,-17.9487,20,20,-21.5386,2.0513,-20.5127,-2.0513,9.7437,3.0771,102.564,5.6411,
-52.8206,-41.5386,-13.8459,-15.3845,18.9744,23.5896,-27.6921,-1.5383,-25.1282,1.5383,2.5642,8.2053,96.4104,6.6667,
-47.4358,-37.1794,-15.1282,-13.5896,21.282,21.7947,-21.7947,-6.9231,-15.6409,6.9231,9.4871,17.6921,102.8206,12.0515,
-42.564,-34.8718,-15.3845,-12.3074,24.6155,14.8718,-18.9744,-5.6409,-9.7434,5.6409,9.2307,21.5383,108.718,17.4358,
-36.9229,-26.1538,-4.6152,-2.0513,29.231,16.9233,-21.5386,-7.6924,-18.4614,4.1025,2.0513,30.2563,106.667,17.436,
-39.231,-26.9233,-5.3848,-5.3848,14.231,13.0767,-15.1284,-14.6152,-14.1025,8.9741,5.3848,21.7949,105.3848,9.4873,
-38.7178,-21.282,-9.4873,-7.9487,-0.76904,10.5127,-2.3076,-2.3076,0.89746,19.7437,15.1284,12.0513,113.5898,15.1284,
-40.7693,-22.3076,-13.5898,-7.9487,-1.7949,8.4614,-7.9487,1.7949,-5.3848,10.5127,7.9487,13.0771,110,20.769,
-37.6924,-23.3333,-7.4363,-1.7952,13.2051,16.1536,-15.1282,-0.76929,-16.6667,0.76929,2.8206,18.2048,108.4612,18.718,
-41.7949,-24.8718,-3.8462,-0.25635,19.7437,14.6152,-17.1797,1.7949,-16.1538,0.25635,-4.3589,5.8975,107.436,13.0767,
-44.1023,-22.564,-2.051,1.0256,11.2825,8.718,-12.8201,5.1287,-8.7175,8.2053,-5.1282,-1.0256,107.6926,17.4363,
-41.0256,-22.0513,-5.1284,1.0259,10.2563,10.2563,-14.8716,-1.5386,-12.3076,8.2051,-1.0259,2.0513,110.2563,21.0259,
-41.282,-24.8716,-8.4612,-5.3845,14.6155,13.0769,-14.615,-2.8206,-11.5383,5.8977,2.8206,5.8977,118.2053,21.7952,
-45.8975,-24.8718,-12.0515,-7.949,6.4104,6.9231,-8.9744,-2.3079,-6.9231,10.5129,2.3079,7.4358,116.1536,18.2048,
-42.3079,-15.1284,-12.564,0.25635,-7.436,-0.25635,-0.25635,0.25635,-0.76953,18.2051,6.4102,2.3076,116.1538,13.0767,
-38.9744,-10.7693,-15.3845,-1.0256,-17.436,-9.2307,3.5896,1.0256,7.1794,16.4104,13.8459,-12.6924,120.5129,4.6155,
-31.5383,-4.8716,-12.564,-1.7949,-13.5894,-3.333,8.4619,1.7949,14.1025,18.2051,18.2051,-6.9229,118.7183,10,
-28.4612,-13.5896,-16.1536,-7.9485,-11.5383,-3.3333,3.3333,-8.9744,3.3333,12.5642,4.3591,3.3333,104.3591,7.949,
-24.3589,-14.6152,-12.0513,-4.3589,-10,-3.8462,3.8462,-4.8716,3.8462,13.5898,5.8975,13.5898,104.8721,6.4106,
-33.0771,-13.0771,-13.0771,-3.8462,-25,-13.5898,1.7949,-1.7949,10.5127,16.1538,13.0767,7.4355,106.4102,8.4614,
-25.6411,-10.2566,-11.7949,-4.1028,-21.5386,-13.3335,16.7949,1.5386,21.0254,25.1279,16.4102,-1.5386,113.8462,18.4614,
-18.7178,-14.6152,-17.6921,-11.5381,-6.5386,-11.5381,18.7183,-3.8462,11.0259,17.6924,3.8462,-14.6152,113.0771,6.4106,
-17.4358,-10.2566,-13.8459,-11.282,8.4614,-10.2566,14.8718,-4.1028,11.282,16.9231,9.2307,-10.7693,113.8459,4.1028,
-22.8206,-15.1282,-17.6924,-21.7949,20.7693,-25.2566,16.1541,-6.9231,18.718,19.7434,16.6667,-8.4617,107.949,6.9231,
-18.718,-21.282,-18.2051,-24.8718,35.6409,-36.6667,17.1794,-6.9231,13.0769,18.2053,10.0002,-4.8718,105.8972,4.8718,
-17.6924,-21.282,-9.4873,-14.1025,42.3076,-30.5127,13.5898,-6.4102,5.8975,13.5898,5.3848,-3.8462,107.436,3.8462,
-29.4873,-18.2053,-6.4104,-11.5383,27.3076,-38.2053,11.0256,-6.9231,6.4104,13.5896,6.9231,-10.0002,105.8972,6.9231,
-24.6152,-16.9229,-4.1025,-12.8203,27.1797,-40.5127,12.8208,-5.1279,4.1025,12.8208,6.667,-7.6919,105.6411,5.1284,
-13.0769,-18.718,-2.8206,-10.5129,39.7434,-33.0769,10.0002,-4.8718,2.8206,6.9231,5.3845,-5.3845,106.4104,4.8718,
-20.7693,-18.718,-9.4871,-10.5129,24.7434,-38.718,4.3591,-4.3591,6.4104,9.4871,5.3845,-9.4871,106.4104,7.949,
-22.564,-13.3333,-8.718,-8.718,9.7434,-45.6411,13.8459,1.5383,14.3591,21.5383,11.282,-7.6924,115.8972,4.1028,
-16.9231,-12.8206,-6.1538,-10.7693,7.6924,-47.1794,21.0259,1.5386,10.2563,15.8975,13.3335,-13.3333,121.5386,-1.5386,
-19.7437,-16.6667,-11.0256,-18.2053,16.1536,-44.8718,15.1282,-3.3333,3.3333,6.4104,5.8972,-22.3079,120.7693,4.8718,
-16.1538,-13.0769,-9.4873,-14.6155,17.6924,-32.0513,18.7178,-2.3076,11.0259,15.6411,2.3076,-11.0256,129.4873,12.0513,
-16.4104,-12.8206,-11.2822,-8.718,5.6409,-30.2566,21.0256,0.51294,12.3079,18.9744,-0.51294,-3.5896,126.6667,9.2307,
-25.3846,-11.0255,-13.0768,-11.5385,-8.9742,-34.6154,23.8461,7.4359,21.2821,24.8719,11.0258,-7.4359,125.8973,18.7181,
-27.6924,-13.8462,-11.2822,-14.3591,2.0513,-26.1538,8.8461,-2.0513,12.8203,18.4614,10.2563,-11.2822,125.6411,14.8716,
-21.0256,-11.282,-15.3845,-8.2048,15.3845,-12.3074,6.6667,-4.6155,8.718,17.949,4.6155,-6.1536,130.2566,7.1794,
-32.5642,-13.0769,-30.3845,-15.6411,0.38452,-19.2307,21.6667,4.8718,23.718,32.949,8.9744,-4.8718,140.769,17.1797,
-35.8975,-16.4102,-34.3589,-18.9744,-12.3076,-22.0513,22.0515,1.0256,27.1794,30.2566,12.3079,-1.0256,141.5383,20.5129,
-23.3335,-14.1025,-19.3589,-12.0513,2.6924,-18.2053,7.0515,-8.9746,12.1794,15.2566,9.4868,-3.8462,138.2051,10,
-12.5642,-5.3848,-11.0259,-6.4104,-0.76929,-13.5898,20.7693,0.76929,18.718,25.8972,14.1023,-6.9233,151.5383,19.2307,
-14.359,-6.6666,-21.5385,-10.7692,-4.1024,-14.8717,26.1539,2.5641,26.6666,31.2823,17.9489,-2.5641,156.923,25.1281,
-18.7178,-17.6919,-25.3845,-21.7947,3.8462,-24.8716,11.1539,-12.4359,11.6666,16.2823,14.1025,-3.8462,148.4619,10.1281,
-6.6667,-4.1025,-10.3845,-10.7693,0,-17.9487,20.5127,-0.5127,23.0767,23.0767,22.564,0,160,20.5127,
-5.3846,-4.359,-7.4359,-6.4103,-14.6154,-19.7435,24.359,4.359,27.9489,30.0001,18.2052,-5.3846,157.1793,22.8204,
-7.6924,-9.7437,-10.769,-7.6924,0.38464,-18.9744,15.8975,-8.2051,12.9489,15.0001,10.769,-4.6152,148.2051,7.8204,
-14.6155,-7.9485,-18.2048,-11.5383,5.3845,-14.6155,15.1282,-6.9231,4.8718,6.9231,6.9231,-4.8718,151.0256,5.8977,
-17.1796,-9.4872,-24.359,-13.5897,-9.6155,-18.7179,23.8463,4.359,19.8718,21.9231,15.6412,-4.359,160.2565,20.8977,
-15.8973,-14.359,-25.1281,-15.8973,-24.6155,-29.2306,21.0255,-1.5385,26.6666,27.6925,19.4874,1.5385,163.59,22.0514,
-11.2822,-15.8975,-20.0002,-13.3335,-9.6155,-21.5386,14.8716,-11.2822,11.7949,12.6925,9.2305,6.1538,163.0767,11.2817,
-4.3586,-14.1023,-10.5125,-7.9485,-2.8206,-11.5383,22.3079,-11.5383,12.5642,6.9231,4.3591,2.8206,154.6155,11.5388,
-5.3846,-5.8973,-5.3846,-9.4872,-17.8206,-23.3334,29.9999,-6.923,24.8719,21.7948,17.1796,5.3846,157.6923,18.2054,
-8.9745,-6.4103,-11.5385,-16.1539,-32.8206,-32.0514,23.3331,-3.8463,24.359,24.8717,22.3077,3.8463,172.0514,18.7179,
-1.0254,-6.6665,-16.4102,-10.769,-22.0513,-17.0514,17.9487,0.51269,11.7949,12.8208,9.231,-0.5127,171.2822,16.4102,
2.3076,-4.8716,-19.2307,-10,-31.0256,-2.3076,23.3335,-1.2822,10,9.4873,1.2822,-6.9229,159.7437,11.5386,
2.0513,-2.0513,-15.3848,-4.6155,-46.0256,-17.3076,23.5898,-7.1797,18.4614,15.8975,9.7437,-16.9231,156.4102,4.6152,
12.0513,4.3589,-4.8716,10.3845,-52.0513,-5.8975,8.5898,-13.5898,3.4614,0.89746,6.9233,-16.1538,151.5386,-0.76904,
24.6152,11.2817,0.5127,13.333,-37.0513,9.1025,-0.5127,-10.7695,-11.2822,-10.2563,-3.5898,-10.2563,148.7178,4.1025,
16.1536,5.8972,-12.0515,-1.667,-52.0513,10.5125,9.9998,-11.0256,0.76929,-0.76929,-14.6155,-17.6926,142.3074,1.282,
8.9741,8.4614,-11.5386,-2.3076,-67.0513,-4.4875,14.1025,-12.0515,13.0767,9.4873,-6.9233,-22.3079,145.3843,2.3076,
5.8972,5.3845,-10.0002,3.3333,-75.1284,-4.8718,9.9998,-15.6414,1.7947,1.282,-2.8206,-26.9233,149.4871,-1.282,
14.3589,7.6924,-5.1284,4.6152,-60.1284,10.1282,12.8203,-3.5898,-3.0771,-0.5127,-2.564,-15.3848,153.3335,0.5127,
11.0256,1.282,-1.282,-2.8206,-48.4617,12.051,5.8972,-5.3845,1.7947,2.3074,-10.5129,-10.5129,146.9231,-1.282,
8.7183,0,-2.0513,-0.5127,-51.7947,13.3335,0,-14.3589,7.1797,8.2051,-6.6665,-11.2817,150.7695,1.5386,
10.769,0,-10.769,4.6152,-41.5386,14.3589,3.0767,-14.8721,0,1.5386,-3.0771,-16.9233,149.231,-2.564,
11.5386,-0.25635,-6.9229,9.4873,-41.7949,13.0771,16.6665,-5.8975,2.3076,-1.2822,-1.7949,-11.0259,146.4102,0.25635,
-2.0515,-1.5383,-12.8206,1.5383,-56.7949,7.6921,16.4104,-1.5383,9.7434,8.718,-5.1282,-13.3335,152.3079,12.8206,
-4.1023,1.0256,-18.4614,-1.0256,-53.8459,8.2053,17.949,-3.5896,11.7952,15.8977,-1.5383,-19.9998,163.0769,14.3591,
3.0769,0.51294,-11.7952,-1.5383,-46.1538,6.6667,19.9998,-14.8718,2.051,3.0769,-0.51294,-26.6667,157.9485,-0.64087,
-1.0256,2.051,-12.3079,-5.1282,-55.3848,7.6921,11.7947,-12.3079,5.6409,1.0256,-2.5642,-22.5642,155.8972,2.5642,
-2.0513,2.0513,-2.0513,2.0513,-43.0767,21.5386,-3.2053,-5.1279,3.5898,2.0513,-3.5894,-7.5642,153.3335,8.7183,
4.1028,0.51294,12.9487,15.8972,-28.0767,36.5386,-14.8718,-9.7434,-11.4102,-12.3079,-4.1028,7.4358,141.0256,-0.51294,
-5.3848,1.7949,-2.0513,7.436,-13.0767,35.1279,0.12817,-11.5386,-12.564,-3.8462,-0.25635,0.25635,151.0254,6.4102,
-20.3848,-1.0256,-17.0513,-7.564,-28.0767,20.1279,15.1282,-6.1538,2.436,11.1538,1.0256,-3.0769,166.0254,21.4102,
-14.1025,-2.8203,-22.8206,-3.8462,-35.6411,23.8462,10,-4.3589,0.76904,16.1538,-0.76904,7.9487,162.8203,19.231,
-6.4102,0.25635,-10.5127,0.76953,-20.6411,31.5386,2.3076,-10.5127,-13.0767,1.1538,-0.25635,4.3594,157.1797,6.4106,
-12.8206,3.5901,-9.2307,1.0256,-22.564,23.0769,8.2053,-9.2307,-6.6667,4.6155,-1.0256,-6.1536,158.4617,7.1794,
-13.8459,-1.0256,-5.6409,1.0256,-27.6924,18.9744,12.3079,1.5383,-7.1794,2.5642,-3.5896,-3.0769,153.3333,9.2307,
-2.5642,2.5642,-3.0769,4.1028,-12.6924,24.6155,10.7693,11.282,-13.3333,-9.2307,-2.5642,-2.5642,158.9744,5.6409,
-2.8206,6.4104,2.3079,13.5896,-25.8977,11.5383,-0.25659,1.282,-16.6667,-8.9744,-8.4617,-10.5129,160.7693,0.25659,
-4.3591,6.9231,12.5637,21.7947,-35.1282,14.615,2.8206,-3.3337,-12.5642,-2.8206,-4.8718,-6.4104,154.615,3.8459,
-13.0771,5.8975,-2.4363,11.5386,-33.0771,28.4614,7.436,2.8203,-13.5898,-8.4614,-4.8721,-5.8975,148.4614,5.3848,
-21.7947,3.8464,-17.4363,3.8464,-48.0771,18.718,4.8718,1.7947,-9.4871,-1.282,-11.0256,-4.3591,147.4358,1.282,
-13.5896,7.9485,-3.8464,15.6409,-52.5642,19.2307,6.4104,-0.25659,-7.4358,1.7947,-6.9231,0.25659,145.8972,-0.76929,
-13.3335,8.7178,-3.0771,15.3848,-51.7949,20.5127,8.7178,-1.0259,-4.1025,3.0771,-4.6152,-1.5386,146.1538,1.0259,
-13.8462,8.7178,-3.0771,14.3589,-51.7949,20.5127,10.769,-2.0513,-1.5386,3.5898,-3.0771,-4.1025,145.6411,1.5386,
-15.8972,7.6926,-4.6155,12.3079,-53.3333,19.4871,11.282,-4.6155,-0.51294,2.5642,-2.5642,-8.2048,143.5901,0.51294,
-17.949,6.1541,-5.6409,9.7434,-55.3845,17.9485,11.7947,-7.1794,0.51294,1.5383,-2.5642,-12.3079,141.5383,-0.51294,
-19.7437,4.8721,-6.9229,7.436,-56.6667,17.1797,12.0513,-10,1.7949,0.76904,-2.3076,-16.1538,139.7437,-0.76904,
-20.2563,4.8716,-6.9229,6.4102,-57.1794,16.6665,13.5898,-11.0254,4.3589,0.76904,-0.76904,-19.231,139.231,-0.76904,
-27.1794,-0.51294,-18.9744,1.0256,-72.1794,4.6155,10.7693,-26.0254,10.2566,5.6409,0.51294,-23.0769,132.3079,-9.2307,
-18.9741,5.1284,-13.8462,-0.5127,-61.5383,11.2822,18.4614,-13.3335,7.1797,0.5127,0,-21.5386,133.3335,0,
-14.3591,6.6667,-0.51294,0.51294,-53.3335,16.4104,15.8972,1.6665,-3.0769,-5.1282,-3.5896,-22.0515,131.282,5.1282,
-21.5383,-1.0256,-3.5896,-0.51294,-61.0256,7.1794,12.8206,-8.718,6.1536,8.718,0.51294,-20.5129,126.1536,3.0769,
-28.9744,-1.282,-18.5896,-5.8977,-72.0513,3.8459,19.7434,-13.5896,20.7693,20.7693,1.282,-14.6155,121.7947,4.8718,
-21.7947,4.8718,-5.8972,0.76929,-57.0513,18.8459,18.718,-9.9998,8.4617,6.4104,-2.8206,-9.9998,109.4871,-0.76929,
-19.7437,4.8716,2.8203,3.3335,-54.1025,21.2822,11.0254,-16.6665,0.25635,-0.25635,-1.2822,-19.7437,99.7437,-7.9487,
-32.3076,0.51294,-12.1797,-11.6665,-69.1025,6.2822,14.8718,-17.9487,15.2563,12.3079,3.5896,-31.282,109.7439,-0.51294,
-31.5386,3.3335,-25.3848,-12.0513,-81.282,-3.3335,19.231,-5.8975,27.9487,20.2563,5.3848,-17.6924,119.231,7.9487,
-23.8459,6.4104,-10.3848,-2.3079,-66.4102,7.9485,6.4104,-12.0515,12.9487,8.9744,-4.8718,-7.4358,104.231,2.3079,
-18.2051,2.3076,-15.1279,-8.4614,-63.3333,12.5645,12.5645,-16.6665,5.8975,9.4873,-2.3076,-13.0767,104.8721,4.8721,
-21.5383,-4.1028,-25.1282,-17.4358,-67.1794,5.1282,23.5896,-14.3591,11.7947,10.7693,4.1028,-22.5642,113.3333,5.1282,
-17.949,3.0769,-11.2825,-5.1282,-61.5386,8.7175,19.9998,-20.5129,7.1794,3.0769,3.5896,-18.9744,105.1282,-3.0769,
-15.3848,2.564,-10.7695,-2.0513,-66.6667,8.2051,15.8975,-25.1284,8.2051,3.5894,2.0513,-7.6924,97.4355,-3.0771,
-17.6924,-2.3076,-21.7949,-7.9487,-73.5898,5.8975,12.564,-13.5898,10.5127,7.9487,4.3589,-3.8462,101.7949,2.3076,
-17.6921,1.7947,-17.6921,-4.3591,-66.9231,15.1282,13.0769,-8.4617,8.4617,3.3333,4.3591,-18.718,105.8972,-1.7947,
-5.6411,11.2822,-5.1284,5.6411,-52.8206,30.1282,18.9741,-13.8462,4.6152,-4.1025,3.5898,-28.7178,97.9487,-3.5898,
-5.3843,8.9746,-2.8203,3.8462,-62.8203,30,8.4614,-15.1279,0.25635,-6.4102,2.8208,-17.6924,86.9233,-0.25635,
-20.3843,1.2822,-13.5898,-5.3848,-77.8203,15,4.8721,-14.6152,9.4873,-0.25635,5.3848,-14.1025,91.5386,0.25635,
-20.2563,4.3589,-19.2305,-2.3076,-70,2.3076,15.1284,-14.6152,14.6157,4.3589,5.3848,-16.6665,97.6924,-3.8462,
-5.2563,3.5896,-14.8718,-3.5896,-55,13.3333,20.0002,-15.8972,6.1541,6.1541,3.0769,-16.9231,90.2566,-6.1536,
3.0771,4.1025,-0.5127,-2.0513,-40,25.1284,16.9233,-18.9741,0.5127,-0.5127,5.1284,-15.8975,83.5898,-3.0767,
-3.5896,7.6921,3.0769,6.6667,-26.6667,26.6667,3.5896,-21.5383,-3.0769,-10.2561,3.5896,-10.2561,86.6667,-5.1282,
-12.0515,0.76929,-11.9231,1.282,-36.1541,18.718,4.3586,-22.8206,3.3333,-0.76929,3.8459,-9.4875,92.5637,-8.9744,
-7.1794,3.0769,-12.8206,-2.5642,-38.4617,24.6155,19.3586,-19.4871,9.7434,5.1282,2.5642,-18.9744,90.2566,-6.6667,
2.5642,9.2307,2.1794,5.1282,-23.4617,38.4617,20.5129,-19.4871,-2.5642,-9.8718,-5.1282,-29.2307,83.0769,-7.1794,
3.8462,6.4102,7.436,6.4102,-21.2817,36.1538,14.6157,-20.769,-3.8462,-11.5381,-5.8975,-24.3589,90.5132,-9.4868,
-1.0256,3.5896,-7.564,-5.1282,-30.2561,30.2566,19.4871,-18.4617,10.7693,3.4619,1.0256,-12.8206,97.4358,-5.6409,
-1.5386,1.5386,-13.8462,-11.2822,-15.2561,32.8203,16.9229,-18.9746,7.6924,1.5386,3.0767,-17.436,90.769,-8.7183,
7.9487,5.3843,0.25635,-1.2822,-0.25635,34.6152,14.6152,-15.1284,-1.2822,-5.3848,3.8462,-25.3848,88.9741,-4.8721,
12.3079,6.1541,2.5642,-2.051,-3.5896,30.7693,21.5383,-20.5129,-2.5642,-3.5896,0.51294,-21.0256,85.1282,-0.51294,
9.7437,5.1284,9.7437,-9.2305,0,31.7949,13.8462,-29.2305,-5.1279,-5.1279,0,-9.7437,77.436,-11.7949,
6.6667,3.0769,6.6667,-12.8206,-3.0769,29.7439,6.1541,-17.9485,-3.0769,-4.1023,6.1541,-11.7947,86.6667,-11.7947,
5.6409,-1.0256,-8.3333,-14.3591,-9.7434,26.1541,18.9744,-9.2307,1.0256,-3.0769,6.1541,-14.3591,93.8464,2.0515,
5.1282,2.5642,1.5383,-5.6409,1.5383,33.8464,17.4358,-22.5642,-9.7434,-6.1536,-2.051,-9.2307,81.0256,-1.5383,
0,3.0771,15.8975,0,4.6157,34.8721,3.0771,-28.7178,-15.8975,-5.1279,-5.1279,-15.3843,75.3848,-10.769,
0.76929,-2.3079,6.9231,-0.76929,5.8972,39.7434,5.3845,-14.1028,-8.9744,-2.8206,1.282,-11.0256,88.4617,-3.3333,
4.3591,-2.3074,8.4617,-0.76929,15.6414,45.3845,-4.3586,-17.6921,-19.2307,-13.0769,0.76929,2.3079,82.3079,-2.3074,
6.1536,5.6409,15.3845,-1.0256,1.0256,38.4617,-5.1282,-28.718,-12.8206,-10.2566,5.1282,-2.0515,75.3845,-5.6414,
0,5.6411,0.38452,-10.2563,-13.9744,27.6924,9.8718,-21.0254,2.0513,0,6.1538,-13.3335,82.564,0,
0.76904,4.8716,-10.5127,-7.9487,-14.1025,30.5127,10.5127,-9.4873,-3.3335,-0.76904,3.8462,-1.2822,84.8716,5.3848,
1.7947,2.8206,1.7947,-4.8718,-7.4358,28.9744,-4.3591,-21.7952,-14.6155,-9.4875,1.7947,1.282,72.051,-1.282,
6.1536,8.2048,3.5896,1.0256,-14.8718,29.2307,1.5383,-27.6926,-14.3591,-7.1794,-4.1028,-6.1541,72.3074,-1.0256,
13.3333,9.2307,-1.0256,5.6414,-11.7947,29.2307,14.3591,-18.4617,-9.7434,1.0256,-9.7434,-12.3074,82.5642,-1.0256,
14.6152,6.4102,5.3843,4.8716,-8.4619,25.8975,3.8462,-21.7949,-13.0771,-3.8462,-6.4102,-11.5386,78.2051,-8.4619,
9.4873,11.0254,11.5386,4.8716,-23.4619,27.9487,-3.3335,-27.9487,-13.5898,-11.5386,2.3076,-2.3076,70.5127,-8.4614,
4.8721,7.436,2.8208,0.25635,-30,27.436,7.9487,-21.2817,-8.9741,-6.4102,-0.25635,-2.8203,76.1538,-4.8716,
9.4871,7.4358,1.282,-1.282,-15,24.8718,11.5383,-17.1794,-4.8718,1.282,-4.3591,-13.5896,86.4104,-2.3079,
12.5645,5.3848,3.8462,-4.8716,-1.7949,12.5645,4.3594,-26.9229,-5.3843,-8.9741,1.7949,-28.4614,84.3594,-5.8975,
15.3848,4.1025,0,-5.1279,7.6924,2.5645,10.7695,-31.2817,-9.2305,-13.8462,0,-28.2051,76.9233,-12.3076,
18.9746,6.667,0,0,22.6924,2.0513,15.3848,-30.2563,-14.3589,-9.7437,-11.7949,-16.4102,71.2822,-16.4102,
20.0002,7.6926,7.1799,1.0256,19.4875,-5.6409,10.7693,-31.7947,-2.5637,-1.0256,-3.5896,-11.282,72.3079,-10.2561,
15.3845,-1.0256,9.2307,-12.8206,4.4875,-19.4871,6.1541,-37.4358,1.5383,-1.0256,1.5383,-22.5642,73.8464,-10.2561,
30,1.2822,24.2307,-3.8462,19.4875,-4.4871,15.6411,-31.5386,-4.8716,-2.8203,0.76904,-17.6924,80.2563,-9.4873,
25.3848,-2.3076,16.667,2.3076,22.8208,2.3076,10,-39.7437,-13.5894,-10,-7.4355,-18.2051,65.3848,-16.6665,
17.436,0,1.667,0,7.8208,-5.1279,10.7695,-37.4358,-2.564,2.0513,1.0259,-18.4614,66.1538,-4.6152,
17.436,-3.5898,1.5386,-5.1279,14.3589,-2.0513,10.2563,-28.718,-5.1279,4.6152,2.564,-17.436,77.436,-1.5386,
19.231,-1.7949,4.3589,-3.3335,29.3589,11.0259,5.8975,-17.6924,-9.4873,0.25635,-1.2822,-11.5386,78.2051,-0.25635,
12.3079,-1.5383,-3.0769,-7.1794,20.5129,7.6926,3.5901,-15.8972,-4.1023,1.0256,-1.0256,-15.8972,66.6667,6.1541,
4.1023,-7.1794,-6.6667,-12.3079,18.4617,1.0256,1.5383,-22.5642,-8.718,-1.0256,1.5383,-21.5383,66.6667,3.0769,
8.7178,-2.0513,-2.564,-1.5386,33.4617,14.8721,-0.5127,-19.4873,-13.3335,1.0259,5.1284,-6.5383,73.8462,0.5127,
5.8975,-5.8975,-6.9229,1.2822,27.436,11.5386,-3.8462,-20.2563,-9.4873,1.7949,-1.2822,6.4102,66.9229,-2.3076,
1.0259,-9.2305,-3.5894,-5.1279,12.436,0.51318,-0.5127,-19.4868,-3.5894,6.667,0,0,64.1025,0,
-0.51294,-5.1282,-1.0256,-4.1028,0.51294,3.5896,1.0256,-23.0769,-4.1028,13.3333,3.0769,-1.5383,65.6409,2.5642,
-1.2822,-7.436,-4.8716,4.8721,1.2822,2.8203,-2.8203,-28.9741,-11.0254,7.9487,-3.8462,6.9233,60.2563,1.7949,
-2.051,-8.2048,-5.1282,5.1282,9.2307,-1.5383,-2.5642,-18.9744,-11.282,3.0769,1.5383,10.7693,60.5129,7.1794,
-3.5898,-9.2305,-5.6411,-6.1538,12.8208,0,3.0771,-11.7949,-3.5898,6.1538,11.2822,0,69.231,7.1797,
-2.8203,-8.9746,-3.3335,-4.8721,12.564,5.3848,2.8203,-20.2563,-6.4102,3.3335,2.8203,-6.9233,72.0513,3.8462,
-4.6152,-5.6411,0.51269,2.0513,10.769,4.6152,0,-25.1284,-11.7949,-0.5127,0,-8.7183,67.6924,4.6152,
-8.9744,-4.3591,-0.76929,-0.76929,6.9231,0.76929,5.3845,-20.7693,-5.3845,2.8206,7.949,-9.9998,60.2566,5.3845,
-15.8975,-6.667,-6.1538,-3.5898,5.1279,0,5.1279,-16.4102,-4.1025,3.0767,5.6411,0,55.8975,7.6924,
-21.0256,-9.2307,-7.1794,-4.6155,4.6155,-1.0256,1.0256,-16.9231,-4.1028,6.6667,8.718,4.6155,56.9231,18.9744,
-19.4873,-9.231,-4.6157,-3.5898,12.3076,1.5381,0,-14.8721,-1.5386,11.7949,13.8462,0,53.8462,23.5894,
-22.0513,-10.769,-4.6152,0,16.9229,4.1025,-2.0513,-15.3848,-10.2563,6.6665,0,4.6152,40.5127,11.7949,
-24.3589,-9.4873,-2.3076,-0.25635,11.0259,4.8721,0.25635,-18.2051,-8.4614,6.9233,-1.2822,8.9746,40.769,10,
-23.5898,-7.1794,-1.5383,-3.0769,10.7693,6.1536,-4.6155,-16.4104,-1.5383,10.2566,6.1536,1.5383,47.1794,16.9231,
-26.4102,-9.4871,-1.7947,-4.8718,10.5129,2.8206,-4.3591,-15.1282,0.76929,6.4104,1.282,-0.76929,43.8464,13.0769,
-21.7949,-2.8208,-0.76904,0.76904,0.25635,-5.3848,9.4873,-21.2822,6.9229,5.8975,-0.25635,-3.8462,40.769,6.4102,
-18.4614,-0.51269,-9.7437,1.5386,-14.3589,-17.436,10.769,-36.2822,9.231,1.0259,0.5127,-17.9487,38.4614,1.0259,
-17.6924,0.25635,-10,-0.25635,-14.1025,-20.7693,20.2563,-30.5129,15.1279,4.8716,12.564,-12.564,48.9741,2.8203,
-17.6924,0.25635,-10.5132,-0.25635,-13.0771,-19.231,19.7437,-30.0002,15.6406,5.8975,13.0767,-13.0771,45.8975,2.3076,
-17.4358,0.51294,-10.2566,-0.51294,-11.7952,-16.9231,19.4871,-29.231,15.8972,7.1794,14.3586,-12.8206,42.5642,2.051,
-16.9229,0.5127,-10.2563,-0.5127,-10.2563,-15.3848,18.9746,-28.718,16.4102,8.2051,14.8716,-13.3335,38.9746,2.0513,
-16.6667,0.76929,-9.9998,-0.76929,-8.9744,-13.5896,18.718,-27.9487,16.6667,9.4871,16.1541,-13.0769,35.6414,1.7952,
-16.6667,0.76929,-10.5129,-0.76929,-7.949,-12.0515,18.2053,-27.436,17.1794,10.5129,16.6667,-13.5896,32.5642,1.282,
-15.8977,1.0256,-9.7439,-1.0256,-6.1541,-9.7439,17.9485,-26.1541,17.4358,12.3074,17.9485,-13.3337,28.7175,1.5383,
-14.6155,1.282,-15.6409,-1.282,-8.4617,-12.051,17.1794,-28.4614,12.5642,11.0256,16.6667,-5.3845,32.5642,4.3591,
-14.8721,0.5127,-12.3076,-10.7695,-0.51269,-12.3076,14.3589,-25.6411,8.2051,9.2305,13.8462,-10.7695,30.2563,2.0513,
-11.5386,3.3335,-3.3335,-3.3335,-8.4614,-20.2563,24.3589,-21.2822,22.3076,16.1538,23.3335,-7.436,35.6411,4.3589,
-7.6926,2.5642,-2.5642,1.0256,-23.4614,-30.2566,32.3074,-23.5896,29.7434,16.9231,27.1794,-5.6414,33.8459,-1.0256,
-2.5637,5.6414,-1.0256,1.0256,-22.051,-15.2566,17.3074,-25.6409,14.7434,1.9231,12.8206,-9.7434,18.8459,-6.6663,
-1.7949,10,2.3076,8.4614,-7.436,-0.25659,3.8462,-19.7437,-0.25659,-4.3589,1.7949,-9.4873,14.6152,-1.7949,
-8.4617,5.3845,-1.282,7.4358,-22.436,12.5642,5.3845,-19.2307,-1.7952,-0.25659,4.3591,-11.5383,18.718,0.25659,
-4.8721,5.3848,0.76904,7.436,-36.1538,13.5898,6.4102,-23.8462,-1.2822,-1.2822,10.5127,-12.0513,11.5386,-0.76904,
-2.3076,2.3076,5.3843,7.4355,-31.5386,8.4614,2.8203,-30,-5.8975,-8.9746,7.4355,-13.0771,7.4355,-7.9487,
-2.564,4.6152,7.6924,8.2051,-37.9487,-2.0513,8.2051,-28.2051,2.0513,-7.6924,6.6665,-6.6665,13.8462,-9.231,
-4.1023,3.5896,4.6155,8.2053,-42.051,-3.5896,12.3079,-34.3591,4.1028,-6.1536,9.2307,-10.2561,10.7693,-8.718,
-1.5383,-1.5383,5.6409,11.7947,-32.3079,5.1282,13.3333,-38.9744,1.5383,-5.6409,9.7434,-15.8972,10.7693,-5.1282,
-1.2822,-0.25635,5.3843,8.4614,-24.8721,8.9741,8.4614,-29.4873,0.25635,-2.8208,6.4102,-7.9487,12.564,-1.7949,
-3.3335,1.2822,3.3335,-1.7949,-27.436,7.9487,4.8716,-26.4102,-0.25635,-0.76904,6.9229,-3.8462,4.8716,0.25635,
-1.7947,0.76929,8.4617,3.8459,-26.4104,13.5896,3.8459,-32.0515,-5.3845,-0.76929,9.4871,-10.0002,2.8206,-1.7947,
-0.25635,2.3076,15.1279,14.6152,-15.1284,25.3843,-0.25635,-26.9233,-8.9746,-2.3076,13.5894,-4.8721,10,0.25635,
-8.9746,-3.3335,8.4614,7.436,-14.6152,23.8462,-7.9487,-23.8462,-12.0513,-5.3848,13.5898,4.3589,8.4614,3.3335,
-13.5898,-6.4102,2.3076,1.2822,-13.5898,21.2822,-12.0513,-28.9746,-13.0771,-1.2822,11.5386,2.8203,4.3589,7.436,
-10.5127,-2.8203,5.3848,1.7949,-7.436,23.3335,-6.9229,-28.9741,-6.9229,4.8721,12.564,-1.7949,6.4102,13.0771,
-14.6152,-0.25635,0.76953,0.25635,-10.5127,21.7949,-9.4873,-26.9229,-11.0254,0.25635,6.4102,-2.3076,1.2822,14.1025,
-14.6155,0.76929,-0.25659,7.4358,-6.4104,28.9744,-14.1028,-21.7952,-16.6667,0.25659,5.3845,10.5129,-2.8206,19.7434,
-12.0513,-4.3589,3.3335,8.4614,-1.2822,31.0259,-13.0767,-22.8203,-15.1279,1.2822,4.8721,7.9487,-2.3076,14.6152,
-7.1794,1.5383,6.6667,7.1794,-0.51294,29.2307,-7.1794,-18.9744,-12.3079,5.1282,-0.51294,0.51294,-2.5642,12.8206,
-5.3848,9.4873,7.436,7.436,-5.8975,28.4614,-3.8462,-16.1538,-10.5127,7.436,-1.7949,1.7949,-3.3335,18.7178,
-14.8716,6.1538,0.51318,4.1025,-19.4868,19.4873,-6.6665,-27.1792,-9.7437,0,1.0259,0,-6.6665,13.3335,
-15.1284,8.9741,-2.8208,5.3843,-28.9746,12.0513,-0.76953,-26.9233,0.25635,-0.25635,7.4355,4.3589,-6.9233,8.9741,
-9.2307,8.2048,-6.1541,4.6155,-24.6155,10.2561,1.0256,-25.6409,-2.5642,-1.0256,4.6155,5.1282,-10.2566,7.6921,
-5.6411,10.2563,-1.5386,15.3848,-19.4873,21.5386,-6.1538,-23.5898,-14.3589,1.5386,4.1025,5.1284,-15.3848,15.8975,
-16.1538,6.4102,-2.3076,19.2305,-34.4873,16.6665,-14.1025,-23.3335,-16.6665,2.3076,2.8203,3.3335,-21.2822,19.7437,
-15.1284,1.7949,1.7949,12.564,-19.4873,12.0513,-15.6411,-18.2051,-16.667,3.333,-1.7949,14.1025,-20.7695,20.769,
-6.4102,0.25635,6.9229,8.4614,-4.4873,18.2051,-17.1797,-14.6152,-23.8462,-0.25635,-3.8462,24.3589,-17.1797,21.7949,
-8.9744,-4.8718,2.3079,6.4104,10.5127,10.0002,-14.1023,-21.7947,-22.8206,-1.282,1.282,14.1028,-14.6155,22.3079,
-2.0513,-3.0767,12.8208,14.8721,25.5127,-3.5898,-9.2305,-21.0254,-17.9487,5.1284,2.0513,13.8462,-16.9229,26.1538,
3.3333,-0.76929,19.2307,18.2048,40.5127,-8.9744,-12.5642,-19.7439,-20.7693,0.76929,-6.9231,17.6921,-23.8464,24.8718,
-3.3333,2.3079,4.2307,10.5129,39.2307,-9.9998,-9.9998,-21.282,-19.2307,0.25659,-0.25659,12.5642,-16.1541,26.4104,
-3.8464,3.3333,-3.8464,7.9485,38.2048,-14.1028,-3.3333,-23.8464,-14.6155,7.4358,6.4099,6.4099,-8.9744,26.9231,
2.3079,-2.8206,4.3591,11.0256,35.1282,-17.6921,-2.3079,-28.4617,-11.5383,4.8718,-3.8459,4.3591,-17.6921,21.282,
1.7952,1.282,-1.282,8.4617,20.1282,-22.3074,-3.3333,-21.7947,-5.3845,3.8464,-4.8718,2.3079,-21.282,21.282,
0,4.103,-6.1538,3.0771,9.7437,-29.2305,0,-22.0513,-7.6919,1.5386,0.51318,-8.7178,-22.564,15.8975,
9.2307,1.5383,8.8462,10.7693,18.9744,-22.5642,4.6155,-25.1282,-13.3333,-5.1282,-1.5383,-13.8459,-29.2307,10.7693,
7.6924,3.5898,10.769,12.3076,26.6665,-13.8462,3.0771,-22.564,-8.7178,-3.0771,-3.0771,-11.7949,-26.1538,18.9746,
0.25659,2.8206,-1.7947,-0.25659,19.2307,-20.7693,3.3333,-23.8459,-2.8206,1.7947,1.7947,-12.051,-17.1794,21.282,
4.3589,0.76904,-2.8203,-1.7949,13.0771,-20.769,6.4102,-21.2822,-0.76904,3.8462,7.436,-7.9487,-15.6411,20.769,
-0.25659,0.25659,-6.4104,0.25659,4.3591,-19.2307,2.8206,-21.282,-0.76929,7.949,4.8718,-6.4104,-21.282,23.8459,
-1.2822,4.8716,-1.7949,2.3076,3.8462,-22.3076,0.25635,-23.8462,-0.25635,14.1025,1.7949,-8.9746,-18.7178,23.8462,
6.4102,6.4102,5.3848,9.4873,18.2051,-21.2822,-5.3848,-25.8975,-9.4873,5.3848,-8.4614,-16.1538,-19.231,14.6152,
7.6924,5.1284,4.1025,10.2563,12.8208,-17.9487,-4.1025,-21.5386,-6.6665,4.1025,-9.7437,-14.8716,-23.5898,13.3335,
1.282,7.9485,-3.3333,2.3074,-2.1792,-19.2307,4.3586,-22.3079,4.3586,15.1282,-1.282,-9.4875,-22.8206,19.7434,
2.3076,8.9746,-9.4873,-2.3076,-4.3589,-21.2817,7.9487,-20.769,6.4102,18.7183,5.3848,-9.4873,-14.1025,20.7695,
2.564,2.564,-13.8462,-2.564,-4.1025,-26.1538,12.3076,-14.8716,12.8203,21.5386,8.2051,-15.3848,-11.7949,21.5386,
3.3337,5.8977,-8.4612,-0.76929,-18.2048,-25.3845,9.4875,-17.6921,7.4363,16.6667,0.76929,-18.2048,-25.3845,20.7693,
9.4871,12.5642,3.8459,4.3591,-6.4104,-15.6409,3.8459,-21.282,-6.4104,5.8977,-3.8459,-12.5642,-26.9231,18.718,
5.3845,5.3845,-7.949,-1.7952,1.7947,-19.2307,8.4612,-19.2307,0.76929,8.4612,-0.76929,-12.0515,-16.6667,20.2561,
4.1027,6.1539,-16.923,-4.1027,-13.2053,-26.6666,21.5387,-13.8461,15.7693,19.4874,4.1027,-11.7948,-9.2308,30.7692,
6.6667,7.6921,-5.1282,2.5642,-12.8206,-26.1538,11.7947,-19.9998,9.7434,7.6921,-2.5642,-16.9231,-22.0513,25.1282,
12.8206,10.2566,4.1028,9.2307,2.1794,-15.8972,-1.0256,-17.4358,-5.2566,1.0256,-1.5383,-10.7693,-29.7434,18.9744,
8.718,8.718,-8.2053,-3.5896,-12.8206,-16.4104,10.7693,-9.2307,9.7434,14.8718,3.5896,-9.2307,-20.5129,26.1541,
7.949,10.0002,-7.4358,-11.0256,-27.8206,-18.2051,20.2566,-10.5127,24.7434,21.7947,7.4358,-14.1025,-13.5896,35.1282,
8.9744,6.9231,-3.3333,-5.8972,-20.2563,-19.2307,8.9744,-22.3076,12.0515,7.4358,3.3333,-19.2307,-21.7949,25.3845,
8.9746,5.8975,-10,-0.25635,-11.0254,-23.8462,11.5386,-21.2817,7.9487,7.436,0.25635,-16.6665,-21.7949,16.667,
3.5898,6.6665,-8.2051,0,-19.4873,-26.6667,12.3076,-12.8203,5.6411,16.4102,0,-6.1538,-15.8975,21.5386,
2.3076,4.8716,-2.3076,-2.8208,-28.4617,-22.8206,16.6665,-8.4614,13.0767,22.3076,10,-6.9233,-9.4873,33.5898,
7.6923,5.1283,-9.2308,-5.1283,-24.6156,-20.0001,24.6151,-7.1796,23.5897,20.5126,15.8973,-21.9233,-6.1539,30.2562,
6.667,4.6152,-11.2817,-4.6152,-11.7949,-11.2817,15.8975,-11.2817,16.4102,15.3848,10.2563,-29.2307,-7.1792,21.5386,
5.6411,3.5898,-6.6667,-8.718,-21.0256,-3.5898,17.436,-11.7949,23.5898,28.7178,13.333,-21.5386,-4.1028,31.7949,
7.1794,5.1282,-8.2053,-13.8462,-36.0256,-13.8462,27.1794,-8.718,35.3845,37.4358,13.8459,-20.5129,-5.1282,39.9998,
5.8976,5.8976,-5.8976,-6.9232,-28.4615,-16.1539,23.3331,-12.5641,30.0001,23.3331,6.4103,-25.3846,-8.9745,33.0768,
0,4.1025,-9.231,0,-16.4102,-5.6411,13.3335,-23.5898,18.9741,13.3335,3.0771,-28.2051,-17.436,22.0513,
0,2.564,-15.8975,0,-24.1025,-8.2051,16.4102,-20,15.8975,21.0254,3.0767,-32.3076,-25.1282,18.4614,
7.9485,-0.76929,-8.4617,0.76929,-15.1282,-11.5383,16.1536,-11.5383,14.1023,15.1282,2.8206,-33.0769,-21.2822,20.7693,
3.8459,0.76929,-2.8206,3.3333,-10.0002,-5.3845,2.8206,-16.6667,6.9231,3.3333,-0.76929,-34.1028,-19.7439,21.7947,
-2.8206,10.5129,-10,2.8206,-25.0002,-8.9744,15.6409,-11.0256,18.718,18.3333,6.9231,-34.6155,-13.5898,26.4104,
0.51282,14.359,-10.2562,-3.0768,-26.1537,-12.3075,30.6409,-0.51282,29.7438,31.2823,10.7692,-30.2562,-5.1281,28.7179,
4.3589,13.5898,-7.436,-11.5386,-15.6411,-3.8462,27.9487,-8.9744,24.8716,24.3589,3.8462,-33.5898,-8.9744,25.3848,
8.2053,11.282,-10.7693,-17.9487,-14.3589,-5.1282,18.9744,-17.9487,24.6155,22.5642,5.1282,-43.5896,-15.8975,22.0515,
21.282,15.6409,-5.3845,-20.2563,-2.3079,-7.9487,24.3591,-10,21.7947,20.2566,2.3079,-41.7949,-18.2051,22.3079,
33.5896,19.7434,-5.3845,-31.5383,5.3845,-11.0256,19.2307,-18.2051,12.5642,10.0002,-12.6921,-49.4871,-23.8462,9.4871,
48.5896,25.6411,-3.5898,-31.2822,17.4355,-11.7949,12.8203,-31.2822,12.3076,6.6665,-25.6411,-62.5642,-24.6155,3.5898,
63.5896,32.564,1.2822,-19.7437,32.4355,0.76904,9.4873,-28.9741,-0.76904,-4.3589,-35.6411,-67.4358,-32.564,5.3848,
78.5896,43.3333,6.9231,-10.0002,47.4355,15.769,15.6409,-22.8206,-6.9231,-10.5129,-43.3335,-63.8464,-34.1028,7.9485,
70.2563,43.0771,0,-16.9229,32.4355,4.1025,13.8462,-29.2307,0,-3.0771,-46.6667,-74.8718,-29.7437,7.6924,
69.2307,39.4871,-1.0256,-20.0002,22.5637,-1.5388,11.282,-29.231,1.0256,3.0769,-52.3079,-77.436,-29.231,5.1282,
73.3333,37.9485,8.2048,-15.385,37.5637,10.2561,12.8206,-26.6667,-8.2053,-1.0256,-61.5386,-62.436,-30.7695,1.0256,
58.3333,34.1025,6.9229,-14.6152,27.9487,11.5386,11.0254,-22.8203,-8.9746,-5.3848,-59.2307,-52.5642,-30.5129,5.3848,
43.3333,26.1536,-8.0771,-10.7693,12.9487,-0.51294,13.3333,-20,0.51294,0.51294,-51.282,-55.8975,-23.5898,8.718,
35.1282,21.7947,-2.8206,4.2307,14.1023,0.76929,6.4099,-30.0002,-6.9231,-0.76929,-52.0515,-55.6411,-20.7693,0.76929,
38.7183,20.7695,12.1794,16.1538,22.8208,7.436,-3.3335,-31.0254,-16.6665,-4.3589,-51.0256,-49.4871,-24.3589,3.3335,
23.7183,15.6409,5.8972,5.8972,7.8208,-2.3079,3.3333,-17.6921,-3.3333,2.3079,-48.4617,-53.0769,-20.2566,11.5383,
14.3591,16.9231,-8.2053,5.6409,-7.1792,-5.6409,8.718,-16.4104,5.6409,8.718,-50.2566,-55.3848,-10.2566,11.282,
14.3589,13.8462,-2.564,10.2563,-4.1025,1.5386,5.1284,-27.6924,-1.5386,4.6152,-50.2563,-41.5386,-9.231,15.8975,
3.3335,4.3589,-3.8462,-0.25635,-16.6665,3.3335,7.9487,-22.3076,0.25635,7.436,-42.8206,-27.9487,-8.4614,28.9746,
-1.5383,6.1541,-12.8206,1.0256,-21.5383,3.0769,13.3333,-13.3333,5.1282,14.3591,-37.9487,-28.2051,-1.0256,28.718,
-1.0256,8.2053,-7.6921,9.7434,-15.3845,1.0256,12.8206,-23.5898,3.0769,7.1794,-44.1025,-35.8975,-4.1028,18.9744,
-5.6411,5.6411,6.667,12.3076,-14.8716,-2.0513,12.8208,-25.1282,2.0513,4.1025,-48.7178,-38.4614,-5.6411,21.0259,
-10.5129,-0.76929,3.8459,8.9744,-6.9231,0.25659,3.8459,-18.718,-0.25659,6.9231,-42.3076,-42.8206,2.8206,18.718,
-13.3335,-0.5127,-9.231,2.0513,-10.2563,0.5127,6.6665,-16.4104,6.1538,14.8716,-28.2051,-39.4873,7.1797,20.5127,
-10.2566,7.1794,-6.1538,1.0256,-24.1025,-1.0256,21.6665,-8.2053,21.1538,29.8716,-20,-24.4873,14.3591,35.5127,
-5.641,3.5897,-0.51282,0.51282,-29.2306,-0.51282,24.6156,-14.359,29.7435,30.2567,-26.1537,-24.1024,17.9486,44.6156,
-6.9231,-0.25659,-4.8718,4.8718,-18.718,3.3333,9.6156,-28.4617,14.7435,15.2567,-36.1538,-36.6667,3.3333,29.6156,
-8.4614,5.8975,-3.3335,12.564,-12.0513,6.4102,3.8462,-17.1797,3.3335,5.8975,-32.5642,-30.5129,-5.8975,18.2051,
-14.3589,2.0513,-2.0513,11.2817,-26.1541,7.1792,14.8716,-6.667,12.8203,16.4102,-31.2822,-29.231,-2.0513,25.1279,
-16.6667,-0.25659,0.25659,14.6155,-27.436,12.5642,6.9231,-13.5896,3.3333,12.051,-34.6155,-31.0256,-0.76929,21.282,
-21.5383,1.5383,-1.5383,7.6921,-31.2822,4.6155,4.1023,-19.4871,7.1794,10.2561,-32.8206,-31.2822,-2.5642,19.9998,
-16.9231,7.1797,-5.6409,0,-33.8459,0,19.1023,-7.1794,22.1794,25.2561,-22.564,-23.5896,11.7949,34.9998,
-12.8206,3.0769,-7.1794,0,-27.6924,0,26.1536,-22.1794,27.1794,27.1794,-20.5129,-21.5386,18.4617,35.8972,
-12.0513,-1.7949,-4.3589,3.3335,-22.8206,1.7949,16.6665,-37.1794,12.1794,17.1797,-22.8206,-19.7437,11.5386,28.4614,
-13.8462,1.0256,-13.3333,-1.0256,-28.2051,4.1028,17.4358,-52.1794,18.4617,20.5129,-19.4871,-12.3076,14.3591,34.8718,
-10.5127,-0.25635,-12.564,0.25635,-13.2051,14.6152,22.3076,-67.1794,22.3076,22.8208,-10.5127,-3.3333,22.3076,37.6924,
-11.7947,-8.718,-6.1541,-1.0256,1.7949,12.8206,8.718,-82.1794,7.3076,7.8208,-16.9231,-9.7434,7.6921,23.0769,
-9.2307,2.5642,-4.6155,-2.5642,-12.8206,13.8464,18.4617,-97.1794,16.9231,15.8977,-8.718,-8.2048,14.8718,38.0769,
-15.6411,2.8206,-16.1538,-9.4871,-27.8206,10.5129,25.8972,-99.2307,31.9231,27.9485,-2.8206,-13.0769,27.9485,43.3333,
-18.2051,0.76929,-14.1025,-0.76929,-21.282,7.949,15.6414,-111.0256,16.9231,16.6667,-10,-11.0256,23.8464,31.5383,
-22.3079,1.282,-4.3591,5.3845,-20.7693,11.5383,6.4104,-116.6667,1.9231,4.3591,-22.8206,-1.282,8.8464,31.0256,
-25.3848,-1.7949,-2.3076,2.8203,-30.5129,15.6411,1.7949,-110,-0.25635,6.9229,-29.4873,0.25635,2.8203,36.6665,
-15.8977,-5.6414,-1.5383,1.5383,-22.0515,11.282,2.5642,-112.3079,2.5642,10.2561,-24.1028,-6.6667,13.3333,28.718,
-8.718,-8.2048,1.0256,-1.0256,-17.9485,5.6414,11.7952,-125.1282,7.1794,12.3079,-13.8459,-11.7947,17.4358,22.5642,
-15.1282,-5.3843,1.7949,-1.7949,-26.4102,8.9746,15.6411,-125.3845,18.7183,23.3335,-4.8716,-2.8203,16.1538,34.6157,
-21.2822,-8.9746,-2.8208,-2.8208,-29.4873,4.8716,13.5894,-128.4617,21.7949,24.3589,-2.3076,2.3076,19.2305,36.6665,
-13.8462,-7.1794,-3.5898,4.6152,-25.6411,1.5386,20.5127,-129.2307,25.6411,24.6152,-1.5386,-6.1538,30.769,33.3335,
-13.0769,-3.3333,-7.9487,7.4358,-28.4614,3.3333,19.7439,-126.4102,24.8718,25.8977,-8.4614,-16.1538,30.5129,36.1541,
-16.6666,-1.2821,-8.9742,7.4359,-36.1537,1.2821,18.205,-121.7948,27.4359,26.4105,-6.923,-13.0768,25.8973,37.6923,
-14.1025,-0.76929,-5.8975,9.4871,-28.9744,0.76929,12.5642,-130,20.7693,19.2307,-6.4102,-17.1794,21.7952,26.4104,
-11.7952,-4.6155,-4.6155,6.1536,-16.4104,6.1536,4.6155,-144.6155,8.2048,10.2561,-15.3845,-30.2566,13.8459,17.4358,
-14.3591,-3.0769,-6.6667,3.0769,-21.5386,10.7693,3.5896,-143.5898,6.1541,8.2053,-16.9231,-27.1794,5.6409,22.5642,
-15.6409,-2.8206,-15.1282,5.3845,-31.0256,7.4358,4.8718,-137.6924,9.4871,7.9485,-16.1541,-18.2053,2.8206,23.8459,
-10.5127,-3.8462,-8.9746,14.6152,-21.2822,5.3848,7.436,-140.2563,10.5127,9.4873,-15.1284,-16.1538,3.8462,18.2051,
-10.5132,-3.3335,1.7949,16.6665,-14.1025,5.8975,7.4355,-145.3848,5.8975,10,-7.436,-19.7437,-1.7949,16.1538,
-14.3591,-8.7178,0.5127,2.564,-29.1025,-2.0513,10.769,-143.5898,13.3335,14.3589,0,-29.2307,0,20,
-4.6154,-5.1283,4.6154,-5.1283,-35.3846,-6.1539,24.1027,-129.7435,28.3335,28.7179,6.1537,-19.4872,15,27.692,
-4.3589,-1.282,7.4358,0.25635,-35.1282,-6.9231,25.3845,-131.0256,29.4871,28.9744,-0.25635,-5.8975,19.2307,26.9231,
-10.2565,-0.51282,0.51282,12.3077,-37.4359,-3.5897,25.1281,-130.7692,25.1281,27.1793,-3.5897,-9.7435,13.8463,31.795,
-8.718,-1.5383,-13.3335,13.8459,-25.6411,1.5383,15.8972,-117.436,17.4358,15.8972,-13.8462,-16.9231,2.5642,25.1282,
-2.8203,1.2822,-12.0513,10,-13.5898,6.4102,15.6411,-102.436,13.0771,12.0513,-13.0769,-16.6667,-1.2822,17.1797,
-4.359,2.8207,-2.8207,8.4613,-26.9232,-2.8207,25.3846,-88.4615,25.3846,22.8207,-3.3334,-19.2308,6.41,22.3075,
-7.6921,0,0,7.6926,-32.8203,-13.8459,16.9231,-83.0769,24.1028,20.0002,-12.8203,-18.9744,0.51294,26.1541,
0.51294,1.0256,-0.51294,11.7947,-19.4873,-5.1282,13.8459,-72.3079,12.8206,10.2561,-17.9487,-14.3591,-7.6921,25.6409,
0.76929,-0.76929,-5.3845,17.6926,-24.3589,2.8206,11.5388,-68.9741,3.8464,4.3591,-17.1794,-23.3333,-9.4871,17.1794,
-2.3076,2.8203,-3.3335,26.9229,-29.4873,2.3076,10,-66.9231,11.5386,15.1279,-11.5386,-21.7949,-2.8208,15.1279,
-0.5127,5.1284,0,24.6152,-28.718,-1.5386,15.3848,-64.1025,20.5127,22.564,-9.2307,-9.7437,0,18.9746,
-1.5386,-3.5898,2.0513,15.3848,-27.1794,1.5386,8.7178,-61.0256,5.5127,7.564,-16.4102,-7.6924,-12.8203,13.8462,
-5.8972,-6.4104,2.8206,17.1794,-23.8462,11.0256,10.0002,-47.9487,10.0002,10.5129,-8.4617,-2.8206,-5.8972,19.7439,
-17.1794,-4.8718,-12.1794,11.0259,-36.1538,3.8462,16.1538,-44.3589,25.0002,25.5129,-3.8462,-3.8462,7.9487,31.0259,
-7.9489,1.2821,-15.1283,13.0768,-38.7179,-1.2821,25.8976,-34.6154,36.6666,36.6666,-1.2821,-1.2821,10.5128,36.1539,
5.3843,-0.25635,-2.3076,23.333,-26.4104,-1.2822,22.3076,-31.5386,21.7949,22.8203,-4.3589,0.25635,-2.8208,22.8203,
2.0515,1.5383,-1.5383,23.5896,-25.1282,-3.0769,11.7952,-43.0769,11.7952,19.4871,-11.7947,-6.1536,-10.2561,16.4104,
1.282,5.3845,-2.8206,17.6921,-29.4873,-1.282,14.6155,-38.2051,22.8206,31.5383,-4.8718,-2.3079,-1.282,26.9231,
-3.3333,-2.8206,-6.9231,10.5129,-30.5127,1.282,10.5129,-29.9998,16.6667,26.4104,-1.282,4.3591,-3.8459,28.4617,
-5.3848,-3.8462,-7.9487,13.0771,-25.8975,5.8975,11.0259,-30.5129,18.2051,21.7949,-0.76904,0.76904,-3.8462,31.0259,
1.2817,-4.3589,-0.25635,20.2563,-12.5645,6.4102,0.25635,-41.2822,9.4868,6.7949,-9.4873,-12.0513,-15.6411,16.0259,
10,3.3335,11.0254,28.4614,2.3076,15.6411,-6.4102,-36.6665,-3.3335,-2.3076,-12.0513,-7.436,-23.3335,6.9229,
-1.7949,1.7949,-3.9746,14.6152,-12.6924,4.3589,6.4102,-33.0769,9.4873,12.0513,-10,-17.6924,-16.1538,14.1025,
-0.76917,3.3334,-13.077,7.4359,-27.6924,0.76917,21.4102,-25.3846,24.4873,24.8719,-2.3077,-22.8204,-1.1538,28.9745,
1.7949,-3.8462,-2.8203,8.9741,-13.0769,0.76904,14.1025,-27.4358,18.7178,14.6152,-2.3076,-17.1794,-0.76904,24.3589,
1.0256,-7.6921,7.6921,13.8459,-13.3333,-8.2053,12.3079,-31.282,13.8459,14.3591,-1.0256,-10.2566,-1.0256,17.9485,
-1.282,-5.8975,1.282,6.4104,-26.4104,-12.0513,16.6667,-29.4873,21.282,19.2307,1.282,-16.1538,-1.7947,19.2307,
1.5383,-6.1538,-5.1282,0.51294,-18.9744,-0.51294,18.9744,-23.5898,25.6409,20.0002,4.1028,-19.4871,-0.51294,20.0002,
1.0256,-3.0769,-6.1541,6.1536,-3.9744,4.6155,15.3845,-17.949,12.8206,13.8459,-2.0515,-13.8464,-3.0769,14.8718,
-1.0259,0.5127,-1.5386,8.2051,-0.51269,5.6411,9.2305,-15.8975,1.0254,7.6924,-5.6411,-10.2563,-10.2563,14.3589,
-4.3589,-5.8975,5.8975,5.8975,-13.0771,3.8462,7.9487,-18.2051,5.3848,7.9487,-3.8462,-19.231,-11.5386,14.1025,
-2.0515,-2.5642,7.6921,12.8206,-15.3848,-1.0256,17.4358,-6.6667,20.3848,21.0256,1.0256,-16.9231,-3.0769,17.4358,
-2.8206,0.25659,-2.3079,7.4358,-19.7437,-1.282,20.2566,-0.25659,22.3079,26.4104,2.8206,-8.4617,-5.3848,19.2307,
-7.1794,-0.51294,-11.7949,0.51294,-22.0513,4.1028,14.8718,-4.6155,15.8977,18.4617,2.5642,-6.1536,-8.718,21.0256,
-8.2053,1.0256,-1.0256,13.3333,-11.282,3.0769,14.3591,-9.7434,7.1794,8.2053,-3.0769,-8.2053,-3.5896,17.4358,
-0.76953,-0.25635,13.9744,19.7437,-0.25635,0.25635,16.6665,-16.667,3.8462,4.8716,-0.76953,-12.0513,-5.3848,8.4614,
-3.0771,-4.6152,6.6665,5.6411,-8.7183,-2.564,8.2051,-22.0513,6.1538,5.6411,2.564,-17.436,-11.7949,4.1025,
-4.8718,-0.76929,-2.3074,7.949,-11.0256,0.76929,13.5901,-16.1538,14.6155,13.0769,3.8464,-11.0256,-1.282,14.6155,
-5.1284,-2.0515,-1.5383,11.7947,-15.3848,-2.5642,22.5642,-13.8462,18.9744,15.3845,1.5383,-10.2566,5.6409,19.9998,
-1.5388,-2.0515,1.5383,11.7947,-17.436,-2.0515,16.9231,-11.2822,16.9231,15.3845,1.0256,-15.3848,-1.0256,17.4358,
-1.0256,0.51294,5.6414,18.4617,-13.3333,-0.51294,11.7952,-12.8206,12.8206,15.3845,-4.1023,-18.9744,-5.1282,10.2566,
-2.3079,2.3079,10.5129,26.9231,-11.0256,-3.3333,12.5642,-20.2561,5.3845,10.0002,-13.0769,-22.8206,-4.3591,4.8718,
-4.1028,3.0769,13.3333,23.0769,-7.6921,3.0769,7.6921,-20.0002,-0.51294,0.51294,-12.8206,-23.5896,-5.1282,7.1794,
-13.0769,-0.76929,4.3591,9.4871,-7.949,11.0256,5.8972,-13.5896,2.3079,0.76929,-12.0515,-21.7947,-0.76929,13.5896,
-12.051,-3.3333,-5.3845,3.8464,-6.9231,8.4617,9.4871,-5.8972,5.3845,11.0256,-11.5383,-19.7437,3.3333,14.1028,
-7.6924,-5.6411,-7.1797,0.5127,-16.9231,-5.6411,15.8975,2.564,14.3589,16.4102,-0.5127,-18.9744,1.0254,11.7949,
-3.8462,-4.8716,3.8462,5.3848,-10.5127,-3.8462,12.0513,0.25635,13.0771,8.4614,-0.25635,-17.1794,-3.8462,10,
0,-4.1025,9.7432,11.2817,4.4873,0,5.1279,-14.7437,0.5127,0,-12.8208,-14.8721,-6.667,6.1538,
-1.282,-0.76929,5.8972,12.0515,-10.5127,-14.6155,17.1794,-8.9744,11.5383,14.6155,0.25659,-7.9485,-0.25659,12.5642,
-9.4871,-0.25635,-1.7949,10,-25.5127,-21.282,20.7695,0.25635,19.231,20.7695,10.5127,-8.9744,-5.8975,13.0771,
-4.8718,-1.282,-5.3845,8.4617,-22.3079,-6.282,13.0769,-4.3591,16.6667,15.6409,1.282,-10.5129,-8.4617,11.0256,
0,-0.5127,3.5898,10.7695,-14.8716,8.718,0,-15.3843,1.6667,5.1284,-10.769,-5.1279,-14.3589,7.1797,
-4.8718,6.9231,12.5642,21.7952,-29.8716,23.718,1.282,-9.9998,-1.282,4.8718,-7.9485,-4.3586,-15.1282,7.949,
-16.4104,7.6921,-2.4358,17.9485,-44.8716,32.3079,4.1028,-4.1028,9.2307,10.7693,-5.6409,-13.3333,-12.8206,9.2307,
-17.4358,8.718,-17.4358,11.282,-59.8716,37.4358,2.5642,-2.5642,11.282,13.8464,-5.6409,-14.8718,-9.2307,13.3333,
-11.0256,10.0002,-7.9485,17.6921,-74.8716,41.7952,2.8206,-2.8206,3.3333,11.0256,-5.3845,-11.0256,-9.4871,12.0515,
-7.1794,12.8206,-1.5383,27.6926,-64.1023,46.6667,1.0256,-2.051,4.6155,12.8206,-4.1023,-1.0256,-11.7947,16.4104,
-12.051,10.5129,-7.9485,21.7952,-79.1023,37.6926,-0.76929,-1.282,11.5388,14.6155,-2.8206,0.76929,-13.0769,21.7952,
-10.0002,3.8459,-0.76929,11.5383,-77.1797,31.5383,0.76929,-5.8977,2.8206,6.9231,-2.8206,-6.4104,-12.5642,7.9485,
-6.6665,4.1025,6.6665,9.7437,-63.5898,32.8203,5.1279,-6.1538,-1.5386,6.6665,-2.564,-3.0771,-9.231,1.5386,
-18.9744,-1.0256,-8.3335,5.1282,-78.5898,19.4871,7.6921,-5.6409,13.3333,14.3591,1.0256,-3.5896,-7.1794,14.8718,
-22.0513,-2.0513,-15.3845,10.2563,-85.6409,18.9746,2.0513,-5.6411,14.3589,15.8975,2.564,-12.3076,-8.2051,20,
-9.4871,7.949,-0.38452,23.8464,-70.6409,29.4871,-2.3079,-4.3591,4.8718,14.6155,-0.25659,-7.9485,-12.5642,8.4617,
-11.2822,5.1279,0,22.0513,-67.1797,25.6411,-2.5645,-5.1284,5.1279,14.8716,0,-7.1797,-11.7949,9.2305,
-13.0771,2.3076,-0.25635,19.7437,-68.4617,21.7949,-2.8208,-5.3848,5.3848,14.6152,0.25635,-6.9233,-11.5386,9.4873,
-14.3589,0,0,18.4614,-69.231,18.9741,-2.5645,-5.6411,6.1538,15.3843,1.0254,-5.6411,-10.2563,10.769,
-15.3845,-1.0256,1.0256,17.4358,-69.231,16.4099,-1.5388,-4.6155,7.6921,16.4099,2.5642,-4.1028,-8.718,12.3074,
-17.1794,-3.8464,1.282,15.1282,-71.0256,12.5642,-1.282,-5.8977,7.9485,16.6667,2.8206,-3.3333,-7.949,13.0769,
-12.3076,-5.6411,1.5386,20,-56.0256,24.1025,-7.6924,-4.1025,-1.5386,7.6924,2.564,4.1025,-11.2822,9.231,
-16.6663,-0.76929,-11.0256,18.718,-55.1279,24.3591,4.3591,-4.8718,11.5388,19.2307,0.76929,-3.3333,-5.8972,16.1541,
-18.9742,-0.51282,-17.4357,10.2567,-70.1279,16.4105,11.2821,-3.0768,18.9745,25.1283,-1.0255,-5.641,0.51282,25.1283,
-11.0256,-4.8718,-10.5129,9.4871,-55.1279,22.3079,4.8718,-1.282,4.3591,13.0769,-1.7947,0.76929,-0.76929,19.7439,
-8.718,-0.51294,-5.1282,13.8464,-40.1279,31.7947,0.51294,-3.0769,6.1541,14.3591,2.5642,-1.0256,-4.1023,14.8718,
-17.9485,-0.51294,-4.1028,9.2307,-55.1279,25.6409,0.51294,-7.6921,10.7693,13.8459,3.0769,-9.2307,-8.718,11.282,
-14.8721,2.0513,1.0254,12.3076,-51.7952,24.6152,0,-5.1284,-0.51318,4.6152,0,-4.6157,-8.7183,10.769,
-10.7693,5.1282,-2.5642,22.051,-36.7952,30.7693,-4.1028,-1.5383,-0.51294,10.2566,0.51294,2.051,-6.1541,12.8206,
-16.4102,1.5386,-7.1797,19.4873,-47.6924,23.0767,-3.0771,-0.5127,9.7437,17.9487,0.5127,-3.0771,-6.1538,15.3843,
-16.4102,0,-3.0767,13.3335,-56.9229,12.3076,4.6157,-2.564,7.6924,15.3848,0,-8.2051,-2.564,16.4102,
-7.9485,-1.7947,6.4104,12.5642,-45.8975,11.5383,0.25659,-12.5642,-0.25659,7.4358,1.282,-4.8718,-5.3845,7.4358,
-7.6921,-3.5896,6.1541,10.2566,-43.5896,11.7952,-6.6667,-13.3333,1.5388,5.1282,0.51294,-0.51294,-10.2561,3.0769,
-16.4102,-4.1025,-8.7178,5.6411,-58.4617,5.1284,4.6152,-2.564,11.7949,15.8975,2.0513,-2.0513,-2.0513,10.769,
-17.4358,-5.6409,-14.8718,3.0769,-63.5896,4.1028,4.6155,-5.1282,7.6926,13.8464,2.5642,-7.6921,-2.5642,10.2566,
-2.564,1.5386,-2.564,10.7695,-48.5896,19.1028,-4.1025,-1.5386,-3.0767,6.667,2.564,1.5386,-7.6924,9.231,
-0.51294,0.51294,-2.051,12.8206,-33.5896,21.5383,-1.0256,3.5896,-7.1794,6.1541,-4.6155,3.0769,-8.2048,8.2053,
-9.4873,-0.25635,-5.3848,14.1025,-43.3333,7.436,3.3335,2.8203,-0.76904,11.5386,-7.436,0.25635,-5.3848,5.3848,
-9.4873,-0.25635,-2.3076,6.4102,-45.8972,3.8462,1.2822,-2.3076,2.8208,7.436,-2.3076,0.25635,-3.333,5.3848,
-3.0771,-4.1025,-2.5645,-2.0513,-38.4617,10.2563,3.0767,-3.5898,3.0767,6.1538,4.6152,-4.1025,2.0513,9.2305,
-3.0771,0,-2.0513,12.3076,-25.6411,15.8975,0,-1.0259,0,6.6665,6.6665,-1.0259,0,11.7949,
-13.5898,0.25635,-7.9487,11.5386,-40.6411,9.4868,-2.8208,-1.7949,1.7949,6.4102,3.8462,-0.25635,-3.3335,9.4868,
-14.3589,-6.6665,-16.4102,-3.0767,-55.6411,4.6157,2.0513,0,9.231,12.3081,1.5386,-3.5894,0,7.6924,
-7.1794,-10.2561,-8.2048,-1.0256,-47.1794,6.6667,-2.051,1.0256,4.1028,10.2566,1.0256,4.6155,-3.0769,8.2053,
-13.8464,-13.3333,-4.1028,1.0256,-43.5898,3.0769,-5.1282,-1.0256,1.0256,6.6667,1.5383,10.7693,-5.6414,6.6667,
-19.4871,-12.3079,-10.7693,-4.1028,-48.718,2.5642,-1.5383,1.0256,2.5642,12.3074,1.0256,4.1023,-1.0256,10.7693,
-18.718,-12.0515,-12.0515,-7.4363,-43.8464,8.9744,0.76929,-0.76929,1.7947,12.5637,0.76929,-4.3591,4.3586,12.5637,
-10.5129,-9.9998,-6.4099,-0.76929,-33.0769,13.0769,0.76929,-1.7947,3.3333,6.9231,4.3591,-2.8206,6.4104,10.0002,
0,-4.6152,1.0259,9.7437,-22.564,14.3589,-7.1792,0,-3.5898,1.5386,-1.0254,0,-5.6411,3.0771,
0.25635,-2.3076,5.3848,14.1025,-22.3076,14.1025,-5.3848,2.3076,-4.3589,4.3589,-3.3335,0.76904,-11.0259,-0.25635,
-10.0002,-5.8977,-6.9231,5.8972,-37.3076,3.3333,2.8206,-2.8206,4.8718,9.4871,0.25659,-0.25659,-3.8459,6.9231,
-11.0256,-4.3589,-15.6409,1.7949,-46.9231,-2.8203,7.9487,-1.7949,17.1797,14.1025,5.3848,-5.3843,5.3848,14.6157,
-3.3333,-3.8459,-4.8718,4.8718,-31.9231,0.76929,-2.3079,2.3079,9.4871,7.4358,3.3333,-8.4617,-0.76929,8.4617,
0.76929,-4.8718,1.7947,4.3586,-20.7693,5.8972,-7.949,-0.76929,-3.3333,2.3074,1.7947,-1.282,-9.4871,5.3845,
-0.25635,-3.8462,-10,2.3076,-27.436,7.436,0.25635,-3.3335,2.8203,6.4102,6.9229,-2.8203,-4.8716,10,
-3.3335,-1.2822,-14.6152,7.9487,-24.8718,11.5386,-0.25635,0.25635,4.3589,3.8462,4.8716,-8.9746,-2.8203,10,
-1.7949,-1.7949,-5.3848,8.4614,-20.7695,12.564,-0.25635,0.25635,3.333,1.2817,3.8462,-6.4102,-3.8462,11.0254,
0.25659,-1.7947,-3.3333,-0.25659,-24.8718,6.4104,3.8459,-6.4104,6.9231,6.9231,12.051,-1.282,-1.282,12.5642,
1.5386,-4.6152,0,3.5898,-16.9229,1.5386,-2.0513,-10.769,-4.1025,4.1025,6.667,3.0771,-7.6919,0,
5.3848,-2.8203,11.5386,12.5645,-8.9741,-0.25635,2.3081,-7.9487,-5.3843,2.8208,0.25635,6.9233,-8.4614,-1.2817,
-6.9231,-1.282,1.282,5.8977,-23.9741,-8.4617,8.4617,-10.5129,6.4104,5.3845,4.3591,-4.3591,-3.3333,8.9744,
-13.8462,-2.564,-11.2822,2.564,-38.9741,-8.2053,11.7949,-6.6665,13.8462,12.8203,14.8716,-5.6411,2.564,11.7949,
-4.6155,-4.1023,-4.6155,4.6155,-23.9741,-2.051,9.7439,-1.0256,5.6414,7.6926,10.2566,1.0256,-3.5896,2.5642,
3.333,2.8203,10.3845,11.5386,-8.9741,-0.25635,1.2817,-5.8975,-2.3076,-4.8721,0.76904,-4.3589,-9.4873,0.25635,
5.8975,6.4102,16.1538,16.6665,-4.3589,0.76904,-0.76953,-13.0771,-0.25635,-5.8975,0.25635,-10.5127,-6.9233,3.8462,
4.1023,3.0769,8.2048,9.2307,-16.4104,-4.6155,5.6409,-10.7693,1.0256,-1.0256,-4.6155,-10.7693,-9.2307,1.5383,
3.5896,4.6155,10.2566,8.2053,-13.3333,-8.718,7.6921,-3.0769,1.0256,-1.0256,-1.0256,-5.6409,-10.2566,2.0515,
3.3333,4.8718,16.6667,17.6921,0.25659,-0.76929,-0.25659,-7.4358,-4.8718,-9.4871,1.7952,-3.8459,-11.0256,2.3079,
2.5642,7.1794,10.7693,18.9744,-5.1282,8.718,4.1023,-5.6409,-2.5642,-3.0769,-3.0769,-7.1794,-8.2053,7.6921,
-3.8464,1.7947,0.76929,6.9231,-20.1282,-0.76929,9.4871,-6.4104,3.3333,3.3333,-8.4617,-16.1541,-8.4617,4.3591,
0,5.1284,14.8721,17.436,-12.3076,-0.51269,5.1284,-4.6152,1.0259,0,-2.0513,-4.6152,-7.6924,2.0513,
1.0254,5.1279,16.9229,17.9487,-6.1538,0,0,-4.6152,-1.5386,-3.5898,-0.5127,3.0767,-12.3076,7.1792,
-0.25635,0.25635,11.0259,10.5127,-17.6924,-1.2817,3.3335,-8.9741,1.7949,0.25635,-0.76904,-0.76904,-13.0767,9.4873,
-2.0515,5.1282,15.3845,16.9231,-11.2825,5.6409,2.051,-5.1282,-4.1028,2.051,-1.0256,-3.0769,-9.7439,1.0256,
-13.0769,1.282,2.8206,9.4871,-20.7693,0.76929,6.4099,-0.76929,1.7947,4.8718,-3.8464,-11.0256,-12.0515,-0.76929,
-6.6665,-1.5386,1.5386,6.1538,-18.9741,1.0259,8.7178,-5.1284,9.7437,7.1797,-1.0259,-6.6665,-14.3589,9.7437,
0.25635,-0.25635,16.5386,14.6152,-3.9741,8.4614,-3.8462,-15.6411,-5.2563,-0.76953,1.2822,-1.2822,-20.7695,4.3589,
-4.6152,0,14.3589,13.3335,-13.3335,3.0771,3.5898,-8.2051,0,6.1538,3.5898,-7.6924,-17.436,-1.0254,
-6.6665,1.5386,-0.64111,5.6411,-28.3335,-5.1279,14.3589,2.0513,11.7949,10.2563,-3.0767,-8.718,-12.3076,6.6665,
-0.25659,2.3079,5.8972,14.6155,-13.3335,4.3591,4.3591,-7.9485,-0.25659,-0.76929,-7.9485,0.25659,-20.2566,7.4358,
-1.7949,1.7949,13.0767,23.8462,1.6665,11.5381,-2.8208,-12.5645,-7.436,-2.8208,-7.9487,4.8716,-31.0259,3.333,
-9.231,0,-0.51318,13.333,-13.3335,5.1279,3.0767,-4.103,5.1279,5.1279,-7.6924,0,-27.1797,4.6152,
-2.3079,-1.282,3.3333,8.9744,-13.5896,5.3845,4.3591,-2.8206,5.3845,2.8206,-0.76929,-3.3333,-20.2566,0.76929,
-0.25635,2.8208,16.667,16.667,-5.3843,8.9746,0.25635,-7.4355,-3.8462,0.76953,3.3335,-3.333,-28.9741,-1.2817,
-9.7434,1.0256,5.6409,10.7693,-20.3843,-1.0256,7.6921,-5.1282,5.1282,10.7693,-2.0515,-8.2053,-32.3076,6.6667,
-4.1025,0,0,5.6411,-25.1279,-2.564,15.8975,2.0513,13.3335,12.3081,-0.5127,-3.5894,-17.4358,12.8208,
0,0,6.667,7.6924,-10.1279,-1.0254,5.6411,-3.5894,-1.0254,-2.6919,2.5645,4.1025,-18.4614,2.5645,
-3.3333,0.25659,12.0515,10.5129,-20.7693,-4.3591,3.3333,-8.9744,-0.25659,1.282,1.7947,5.3845,-28.9744,-0.76929,
-5.3845,-1.7947,10.0002,10.0002,-23.8459,-1.282,4.8718,-9.9998,1.282,9.4871,-3.3333,3.8464,-36.1538,4.3591,
-1.2822,-2.8208,11.5386,9.4873,-8.8459,3.333,5.8975,-8.4614,-5.3848,-0.25635,0.25635,3.8462,-32.564,2.8203,
-2.5642,1.0256,9.2307,7.6921,-11.7952,-8.2053,11.282,-4.1028,2.051,-0.51294,6.1536,-2.5642,-27.1797,0.51294,
-9.7434,-0.51294,0.51294,2.5642,-26.7952,-14.3589,14.8718,-4.1023,8.2053,9.2307,0.51294,-8.718,-26.6665,3.5896,
-2.8203,-0.76904,14.6152,10.5127,-11.7952,0.64111,10.5127,-7.436,-1.7949,4.3589,-0.25635,0.25635,-27.9487,4.3589,
0.25635,2.3076,25.8975,20.769,0.76904,3.3335,-1.7949,-7.436,-14.6152,-7.436,-0.25635,4.3589,-35.6411,-1.2822,
-9.7437,0,10.8975,13.3335,-14.231,-5.1279,1.5386,0,-4.1025,3.0771,-0.5127,2.0513,-34.8718,0,
-14.6155,-3.3333,-4.1025,-1.282,-28.9744,-1.7947,15.6409,4.3591,10.8975,13.5896,7.9485,1.282,-22.8206,7.9485,
-9.4871,-3.3333,3.8464,0.76929,-14.1023,-0.76929,11.5388,-5.8972,6.4104,3.8464,10.5129,-4.3586,-22.3076,7.4363,
-7.1797,-2.0513,14.8716,12.3076,0.5127,-5.6411,4.6152,-9.231,0,-1.0259,5.6411,0,-29.231,6.1538,
-15.1284,-5.8975,-0.12842,8.9741,-7.9487,-7.436,5.3848,-1.2822,0.76904,0.76904,1.2822,5.3848,-31.5386,3.3335,
-14.6157,-9.4873,-9.4873,3.8462,-14.6157,-3.3335,7.9487,0.25635,2.3076,1.2817,7.4355,-0.25635,-27.949,1.2817,
-5.6411,-6.1538,3.5898,8.2051,-2.564,0,5.1279,-6.6665,-0.5127,1.5386,6.1538,0,-30.2563,2.0513,
-1.5383,-2.0515,7.6921,9.7434,1.0256,-2.5642,3.5896,-7.6921,-1.0256,4.6155,-5.6409,1.5383,-35.8975,4.1023,
-4.1025,0,-0.5127,2.5645,-13.9744,-5.6406,18.5896,-0.5127,13.9744,15.8975,1.0259,0,-28.2048,14.3594,
-5.3845,-0.76929,1.7947,-1.282,-14.1028,-3.8464,17.6921,-1.282,17.1794,13.5896,6.9231,0.76929,-26.4104,15.1282,
0.25635,-1.7949,10.5132,5.8975,0.89722,-1.7949,2.8208,-4.3589,2.1794,-0.76904,-2.8203,2.8208,-41.4104,3.3335,
0.51294,-0.51294,4.6155,8.2053,-4.6155,-2.5642,8.718,-0.51294,2.5642,2.5642,-3.0769,-0.51294,-44.6152,3.0769,
-2.8203,3.3335,-1.7949,0.25635,-16.1538,-4.3589,12.0513,-0.25635,8.9746,10.5127,2.8203,-8.9741,-36.1538,8.9746,
0.51294,0.51294,2.0515,-5.6409,-1.1538,-2.5642,5.6409,-9.7434,-0.51294,-2.051,2.0515,-9.2307,-38.9744,2.5642,
1.5386,-4.1025,0.5127,0,11.2822,0,8.7178,-12.3076,-3.0771,-6.6665,2.0513,-3.5898,-42.5642,0.5127,
-6.1538,0.51269,-5.1279,9.7437,-3.7178,-5.6411,11.7949,-2.0513,11.9229,8.3335,6.1538,-0.5127,-36.4102,10.7695,
-12.8206,1.0256,-9.231,10.7693,-18.7178,-14.8718,6.6667,-1.0256,15.3845,16.4104,2.051,-8.2053,-32.8206,10.7693,
-0.51294,0.51294,-0.51294,10.2566,-3.7178,-7.6921,7.1794,-7.1794,2.0515,1.5383,-2.051,-9.2307,-33.8462,4.6155,
3.0769,-4.1028,2.5642,4.1028,11.2822,-12.8206,10.2566,-14.3591,1.0256,2.5642,-1.0256,-6.1541,-31.282,-1.0256,
-5.3848,-8.4614,-0.76904,-2.3076,14.1025,-25.8975,12.0513,-8.9741,10,10.5127,8.4614,0.76904,-25.3845,4.8721,
-9.4873,-15.6411,-10,-10,20.2563,-21.2817,9.4873,-4.3589,7.436,4.3589,13.0771,7.9487,-27.9487,11.5386,
-12.5637,-21.282,-20.769,-17.6921,20.7693,-18.7178,11.0256,-6.9231,8.9744,8.9744,10.0002,6.9231,-29.4871,12.5642,
-10.0002,-14.1028,-12.0515,-9.4871,14.1023,-25.8975,9.9998,-4.8718,5.8972,10.5129,9.9998,4.8718,-23.8462,11.5383,
-1.5386,-12.3076,2.9485,1.5386,28.7178,-23.5898,5.6411,-9.7437,-9.1028,-4.4871,3.0771,1.5386,-28.7178,2.0513,
1.5383,-8.718,13.8464,4.1028,28.2053,-10.2561,14.8718,-10.2561,-2.051,-6.1536,0.51294,-0.51294,-28.2048,6.6667,
-4.6154,-6.1537,1.5385,-1.5385,13.2053,-11.2819,21.5387,-3.5897,12.949,8.8464,8.7179,-3.5897,-18.9742,17.4362,
-4.1025,-9.2307,-0.51294,-1.5386,13.8462,-15.3845,23.0771,0,18.9741,20,16.9229,0,-15.3845,16.9229,
-11.5383,-13.0769,-3.3333,-5.8977,13.0769,-17.6924,15.6409,-10.0002,12.5642,8.4617,9.4871,3.3333,-21.7949,12.051,
-11.7949,-12.8206,-2.564,-7.1794,2.564,-19.4871,17.436,-9.2307,15.8975,16.9233,13.3335,4.6152,-15.8975,15.3848,
-4.3591,-16.6667,0.76929,-5.8972,11.5383,-21.7949,17.6921,-8.9744,10.5129,12.5642,16.1541,-0.76929,-16.1538,7.949,
-2.8206,-7.4358,2.3079,-2.3079,19.7434,-19.7437,18.718,-7.9485,13.5896,11.5383,11.5383,-4.8718,-17.6924,7.4358,
-5.3845,-2.3079,0.76929,-0.76929,12.5642,-18.718,14.1023,-10.0002,15.6409,11.5383,8.4612,-4.8718,-18.2053,8.4612,
-2.8203,-7.9487,1.2822,3.3335,17.1797,-15.6411,3.3335,-16.1538,0.64087,0.25635,1.2822,-3.3335,-25.8975,0.25635,
-2.8208,-12.5645,-1.7949,2.3076,20.769,-15.1284,11.0254,-12.0513,4.3589,6.9229,1.7949,-1.7949,-22.3076,4.8716,
-6.4102,-12.0513,-9.4871,-1.282,6.4104,-22.8203,17.6926,-12.0513,19.3589,19.2307,12.5642,1.282,-10,15.6414,
-1.7947,-7.9485,-12.564,1.282,-1.282,-23.8459,8.9744,-15.1282,14.1028,14.1028,11.0256,3.3333,-16.1538,13.5901,
1.0256,-7.1794,-10.7693,-0.51294,0.51294,-20,9.7434,-13.3333,9.7434,10.7693,3.0769,-2.5642,-22.0513,5.6409,
0.51294,-5.6409,-0.51294,-1.5383,9.7434,-12.3079,17.4358,-12.8206,15.8972,14.8718,4.1023,-5.1282,-13.3335,8.2048,
-5.6409,-9.7434,4.6155,-1.5383,15.8972,-14.3591,9.2307,-22.0513,7.6921,4.1028,1.5383,-8.718,-19.4871,3.0769,
-4.1028,-6.6667,1.5383,-1.5383,8.718,-17.436,18.4617,-11.282,15.3845,11.282,8.718,-4.1028,-13.8462,6.1536,
-2.3076,-7.436,-5.3848,-6.4104,3.8462,-14.6155,25.8975,-2.3076,19.2305,17.1792,14.1025,2.3076,-3.3335,12.564,
-4.1028,-12.3079,-4.6155,-10.7695,12.8206,-8.7183,21.5383,-12.3079,18.9744,13.8459,15.3845,3.0769,-3.0769,14.8718,
-7.6923,-8.2052,-7.1796,-9.2308,10.7692,-9.2308,23.5895,-9.2308,30.7692,23.5895,20.0001,1.5385,-1.5385,18.9742,
-7.436,-6.9231,-10,-2.3079,9.4871,-11.5386,21.7947,-6.4104,22.8206,18.2053,15.6409,2.3079,-10,11.5383,
-4.1023,-11.7947,1.5388,1.0256,11.7952,-14.3586,12.3079,-16.4099,7.8206,3.2053,4.1028,-1.0256,-25,-2.051,
-4.1023,-10.2561,9.2307,1.5383,2.5642,-17.4358,9.7439,-14.8718,7.6926,6.6667,3.5901,-2.5642,-22.0513,-1.5383,
-12.051,-13.5896,1.7952,-0.76929,6.9231,-14.1023,8.9744,-18.2048,3.3333,2.8206,1.7952,0.76929,-9.4871,-2.3074,
-11.5386,-12.0513,2.8203,0.76904,21.9231,0.8977,10.5127,-25.3848,-5.8975,-6.4102,-0.25635,5.8975,-12.0513,0.25635,
-13.5898,-6.9233,-1.7949,-5.8975,6.9231,-0.25635,15.1279,-17.1797,9.1025,5.3848,8.9741,0.25635,-14.1025,10,
-11.5386,-1.282,-2.8206,-1.7949,-8.0769,-11.0256,27.4358,-2.1797,24.1025,20.3848,23.9741,1.282,-0.25635,21.7947,
-13.8462,-8.2053,-0.51294,0.51294,6.9231,-9.2307,16.9231,-12.3079,12.3079,11.282,11.282,-2.0515,-5.6409,11.282,
-13.5898,-10.5127,5.3848,-0.25635,12.0513,0.25635,7.436,-22.8203,-2.3076,0.76904,0.76904,-3.3335,-13.0771,7.436,
-14.1028,-4.8718,8.4617,1.282,-1.282,-2.8206,9.9998,-10.5129,8.9744,5.8972,9.4871,-5.8977,-12.0515,13.0769,
-18.2051,-7.9487,4.3589,0.76904,10.5127,-6.9233,7.9487,-8.9746,2.3076,-0.76904,6.4102,-7.9487,-15.1284,3.8462,
-15.3848,-10.2563,3.0771,-2.0513,25.5127,2.0513,12.3076,-17.436,0,-2.0513,3.5898,0,-10.769,3.5898,
-12.3076,-5.6411,-2.564,-6.1538,15.8975,2.564,16.9233,-13.8462,9.7437,7.6924,6.667,-2.564,-6.1538,14.8721,
-9.7437,-3.5898,-3.0767,-1.5386,16.4102,1.5386,19.4873,-2.564,15.3848,14.3589,10.769,-6.1538,-3.0767,14.3589,
-12.5642,-11.0256,-0.76929,-2.3079,22.8206,0.76929,10.5125,-9.4875,4.3586,2.8206,5.8972,-1.7952,-7.949,1.7947,
-11.5386,-4.3589,-1.2822,-1.2822,22.3076,1.2822,5.3848,-18.2051,1.2822,-2.3076,4.3589,1.7949,-11.5386,6.4102,
-5.6409,-0.51294,-3.5896,0.51294,27.1794,3.5896,7.6921,-20.5129,1.5383,-1.0256,5.1282,-5.1282,-13.8464,10.2561,
-0.5127,-4.1025,6.1538,0.5127,42.1794,16.4102,9.2305,-17.9487,-8.7183,-3.0771,3.5898,-3.0771,-14.8721,1.0254,
-13.0769,-11.0256,1.282,-14.4873,27.949,7.4358,14.1028,-19.7434,-1.282,1.7952,3.3333,-6.9231,-8.4617,1.282,
-10,-1.282,-7.9487,-10,12.949,-2.8206,29.1028,-6.4102,13.718,16.7952,15.6411,-0.76929,6.5383,16.282,
-11.7949,-5.6411,-15.3843,-4.6152,11.2822,-3.5898,14.1028,-8.7178,5.1284,3.0771,3.5898,-0.5127,0.5127,8.7183,
-13.3333,-3.5896,-6.6667,-1.0256,26.2822,11.4102,9.2307,-6.6667,-4.1023,-2.051,5.6409,1.0256,1.5383,6.6667,
-17.436,-0.5127,-14.8721,-1.5386,12.8203,9.7437,9.7437,-11.7949,1.5386,0,6.1538,-4.6152,0,6.1538,
-13.0769,0.25659,-12.0515,1.7947,11.0256,2.3079,8.4617,-16.6667,2.3079,-2.8206,1.282,-9.4871,-6.9231,-0.25659,
-14.6157,-3.3335,-0.25635,0.25635,12.0513,0.76904,10,-12.5645,4.3589,-0.25635,5.3843,-12.0513,-4.3594,1.7949,
-21.282,-6.4104,-1.7947,-3.8459,6.9231,1.282,10.5129,-7.9485,5.3845,3.3333,11.5383,-3.3333,-1.282,7.949,
-13.5898,-6.4102,0.76904,-0.25635,21.9231,7.436,7.436,-11.0254,-3.3335,-4.8716,5.3848,5.8975,-9.4873,0.25635,
-7.436,-0.25635,4.8716,5.8975,31.0254,11.0254,6.9229,-10,-7.436,-6.9233,0.25635,0.25635,-13.5898,-3.3335,
-18.2051,0.25635,-9.4873,0.25635,16.0254,-1.2822,10,-5.3848,-0.25635,3.3335,4.8721,-5.3848,-6.4102,3.8462,
-14.8716,0.5127,-11.2822,-0.5127,1.0254,-2.564,8.7178,-9.231,2.564,4.6152,5.6411,-4.6152,-8.2051,5.1284,
-2.8208,1.7949,1.7949,6.4102,16.0254,5.8975,2.8203,-17.1797,-3.8462,-5.8975,0.25635,-5.8975,-23.2051,-0.25635,
-10.5129,-1.282,-1.282,-0.25659,10.5129,0.25659,11.0256,-13.5896,4.8718,0.25659,9.4871,-3.8464,-19.7434,4.3591,
-20,1.0256,-11.7949,-8.2051,3.5896,-6.6667,20.5129,-5.1282,16.4104,15.2566,20.5129,-1.0256,-4.7434,15.3845,
-15.1282,2.3076,-11.5386,-4.3589,6.9233,-6.4102,11.5386,-11.5386,7.9487,8.4614,13.0771,-2.3076,-10.5127,10.5127,
-8.4617,0.76929,-1.282,2.8206,7.4358,-4.3591,7.4358,-15.1282,2.3079,-0.76929,9.4871,-2.8206,-19.2307,2.3079,
-16.9231,0.51294,1.0256,1.5388,-0.51294,-7.1794,10.2566,-10.2561,2.5642,-2.051,9.7439,-12.3074,-17.4358,1.0256,
-21.282,-2.3079,-0.76929,1.282,2.3079,-5.8972,15.1282,-10.5129,8.4617,0.76929,10.5129,-15.6411,-14.6155,3.3333,
-16.1538,-4.8716,0.25635,3.8462,13.5898,-2.3076,11.5386,-20.769,4.3589,-0.25635,10,-4.8716,-19.2305,1.7949,
-18.2051,-1.2817,1.2822,8.9746,11.0259,-0.76904,7.436,-22.3076,-2.3076,-0.25635,10,0.25635,-15.1279,5.3848,
-20.5129,1.5383,-5.1282,9.2307,-1.5383,-7.1797,16.9231,-7.3076,9.2307,10.7693,12.8206,-8.2053,-3.5896,15.3845,
-19.7437,-0.76929,-12.5642,0.25659,-0.25659,-12.5642,19.2307,1.7947,13.5896,15.6409,12.5642,-13.5898,-7.9487,14.6155,
-16.4104,0,0,-0.51318,14.7434,-0.51318,14.8716,-6.1538,8.2051,9.7437,18.4614,-3.5898,-11.7949,9.2305,
-20,-3.5894,-2.0513,-0.5127,14.8721,0,9.231,-15.8975,1.5386,0,13.3335,2.0513,-18.9741,2.5645,
-21.5383,-1.5383,-15.3845,-4.6155,1.5383,-9.2307,12.8206,-11.282,10.7693,8.718,9.2307,2.0515,-23.5896,9.2307,
-14.1028,1.282,-11.0259,-6.9233,6.4099,-5.3845,19.2307,-4.3591,19.2307,17.1794,17.1794,-1.282,-15.6411,12.5637,
-7.6921,-3.5896,-4.1023,-1.0256,21.4099,5.1282,8.718,-12.3074,4.2307,2.1794,13.3337,-3.5896,-16.4099,2.0515,
-3.8464,-3.3333,-6.9231,0.76929,26.4099,7.9485,8.9744,-15.1282,1.282,-1.282,11.5383,-0.76929,-22.3079,2.3074,
-10.7692,2.5641,-7.1793,-12.8204,11.4099,-4.1024,22.0514,-3.0768,14.8717,13.718,15.3849,-2.5641,-13.8461,10.2565,
-15.6409,1.282,-0.76929,-24.8716,-3.5901,-11.5383,18.718,0.76929,12.5642,15.6414,15.1282,-3.8459,-2.8206,7.949,
-4.6152,-1.5381,0,-25.1279,8.7183,-1.0254,13.8462,-6.1538,8.7183,6.1543,18.9746,0,0,4.6157,
-8.7178,1.5386,-8.7178,-27.1794,2.0513,5.1284,9.7437,-9.231,4.1025,0.5127,12.3076,-4.1025,-8.2051,-0.5127,
-16.4102,7.1797,-8.2051,-26.6667,-12.9487,7.6924,11.2822,-0.5127,2.564,1.0254,9.231,-4.6152,-12.3076,0.5127,
-12.051,4.3591,-3.8459,-25.8975,-24.8718,13.0769,11.5383,0.76929,0.76929,-0.76929,13.5896,-2.3074,-13.0769,4.8718,
-3.8462,4.8716,2.3076,-22.8208,-9.8718,21.2817,11.0254,0.25635,-2.3076,-1.2822,15.6411,-0.25635,-3.8462,10.5127,
-11.7949,2.0513,-1.5381,-28.2051,-7.6924,12.8208,9.7437,-3.5898,0,0,8.7183,-1.5381,2.5645,7.1797,
-21.7949,-1.2822,-10.5127,-34.6152,-22.6924,5.3848,7.9487,-1.7949,5.3848,1.7949,6.9233,1.2822,-2.3076,6.4102,
-19.9998,-5.1279,-17.4358,-39.4871,-30.2561,4.6157,8.2056,2.5645,5.6411,0,9.7437,0,-6.1538,3.0771,
-13.5901,-2.8206,-14.1028,-39.231,-15.2561,9.9998,8.9744,0.76929,1.282,-0.76929,13.5896,0.76929,-1.7952,3.3333,
-3.5898,4.6152,-2.0513,-27.6924,-2.0513,16.9233,5.1284,-3.5898,-3.5898,-1.5386,17.436,4.1025,1.5386,8.7178,
-2.3076,3.8462,-0.25635,-26.9231,-12.0513,11.5386,6.4102,-4.3589,-0.25635,0.25635,13.5898,-4.3589,1.7949,6.9229,
-4.3589,3.3335,4.3589,-26.9231,-9.4873,13.0767,6.9229,-2.8203,0.76904,-0.76904,10,-8.4614,-1.7949,3.3335,
-3.0769,2.051,12.3079,-16.9231,5.5127,18.4617,5.1282,-3.0769,-1.5383,-5.1282,13.3333,-3.0769,-2.5642,1.5383,
-8.9746,-1.2822,0.25635,-16.1538,-1.7949,11.5386,6.4102,-2.8203,4.8716,-0.25635,13.0767,-2.3076,4.3589,6.9229,
-23.3333,-5.3845,-14.7437,-31.1538,-16.7949,2.8206,3.3333,-1.282,8.4617,7.4358,5.8972,-7.4358,1.282,9.4871,
-20.5127,-4.6152,-9.2305,-33.3333,-29.2307,11.2822,10.2563,2.564,10.7695,12.3076,12.3076,-7.6924,-2.564,7.6924,
-5.8972,-1.7947,4.3591,-18.3333,-14.2307,18.2053,8.4617,-0.25659,0.25659,2.3079,13.5896,-7.4358,-10.5129,3.3333,
-1.5386,6.1538,5.1279,-4.6152,0.76929,20.5127,0.5127,-2.0513,-4.6152,-4.6152,9.231,-0.5127,-16.4102,10.2563,
-14.6155,0.76929,-5.3845,-16.1541,-10.5129,15.6409,1.7947,-6.9231,0.76929,0.76929,9.4871,-0.76929,-18.718,12.051,
-10.5129,-1.282,-2.8206,-21.282,-6.9231,17.6921,6.4104,-2.8206,5.3845,11.0256,15.1282,1.282,-12.5642,6.9231,
-2.3076,-1.2817,0.25635,-15.6411,8.0769,19.7437,-0.76904,-0.25635,-0.76904,4.3589,13.5898,3.3335,-11.5381,3.3335,
-13.8462,-3.0767,-8.2051,-18.9741,1.0259,12.8208,0,-5.1279,0,0,6.1538,0.51318,-17.9487,8.2051,
-15.1282,5.3845,-6.4104,-19.7437,-12.0513,12.0515,11.0256,-5.3845,9.9998,8.9744,4.8718,-4.8718,-19.2307,12.0515,
-3.8462,10,0.25635,-14.6152,-5.3848,15.1284,7.9487,-3.3335,3.3335,1.7949,4.3589,-16.6665,-26.9231,-0.25635,
0.5127,7.6924,4.6152,-12.8203,7.1797,18.4614,0,0,-8.7178,-13.2051,1.5386,-16.4102,-41.0256,-6.6665,
5.8975,8.9741,19.231,-4.8721,22.1797,25.8975,-1.2822,-4.3589,-10.5127,-13.0771,0.76904,-1.4102,-48.9744,1.7949,
5.3845,8.9744,15.6409,-2.8206,21.7947,24.3586,-2.8206,-6.4104,-12.0515,-5.385,-3.3333,2.8206,-48.9746,4.8718,
-8.9746,1.7949,0.64087,-17.8206,6.7947,11.5386,3.3335,2.3076,-1.7949,2.3076,1.7949,-4.8721,-44.8718,7.436,
-11.5386,-5.8975,-14.1025,-27.4358,-6.4102,7.436,7.436,1.2822,7.9487,4.3589,12.0513,-1.2822,-47.4358,11.0259,
-3.3335,-3.3335,-1.2822,-18.2051,0.25635,18.7178,3.3335,-2.3076,-0.25635,2.3076,11.0259,7.436,-54.1025,15.1284,
-4.8721,-2.8208,-7.9487,-22.8208,-7.9487,16.1538,10,0.25635,-0.25635,5.8975,9.4868,2.3076,-52.0515,12.0513,
-4.6152,0.5127,-5.1284,-21.5386,-2.0513,10.769,10.2563,-0.5127,3.0771,2.564,13.3335,-3.0771,-50.7693,1.0259,
-4.1025,5.1284,3.5898,-8.2051,-0.5127,14.3589,1.5386,-4.6152,2.564,-5.6411,9.7437,-1.0254,-58.4614,0.51269,
-6.4102,1.2822,3.3335,-2.3076,-2.3076,17.6924,0.25635,-3.333,-0.25635,-7.9487,4.3594,2.3076,-62.8203,5.3848,
-3.5896,1.0256,12.8206,4.1023,12.6924,18.9744,-4.1028,-3.5896,-15.2563,-13.3333,3.0769,4.1023,-66.6667,-1.0256,
-7.436,4.8721,8.9746,0.25635,3.8462,13.5898,2.8208,-0.25635,-12.0513,-5.3848,8.9746,-1.7949,-60.2563,-0.76904,
-22.3076,-0.25635,-6.0254,-14.7437,-11.1538,4.3589,12.0513,0.25635,2.9487,2.8203,12.564,-10.5127,-51.5383,5.3848,
-13.8457,-0.5127,-4.1025,-14.3589,0,17.436,11.7949,-1.0254,8.7183,2.5645,15.8975,0,-46.6665,12.8208,
-11.2817,-6.6665,5.1284,-20.5127,4.1025,13.3335,6.6665,-8.2051,-3.5898,-1.5386,8.2051,1.5386,-54.8718,10.2563,
-15.1284,-3.8462,0.25635,-21.7952,-10.8975,3.8462,7.4355,-2.3081,3.333,3.333,6.9229,-0.25635,-56.6667,11.0254,
-9.4873,2.3076,8.9746,-6.7952,0.25635,17.1797,-3.3335,-0.25635,-2.8203,-4.8716,9.4873,5.8975,-54.6155,7.9487,
-13.8462,0,12.3076,0,3.5894,24.6152,-6.667,-6.1543,-10.2568,-12.8208,6.1538,4.1025,-55.3848,6.1538,
-20.7693,1.7947,-0.25659,-5.3845,-11.4106,14.6155,7.4358,-0.76929,1.282,0.25659,5.3845,-4.8718,-47.9487,14.1023,
-18.4612,1.0256,-2.5642,-5.6409,-9.7434,12.3079,7.1794,-1.0256,1.5388,3.5901,5.6414,-6.1536,-46.1538,13.3333,
-14.6152,1.7949,8.4614,-1.7949,-5.3848,19.7437,-0.25635,-0.25635,-1.7949,0.25635,6.4102,2.3076,-50.5129,9.4873,
-16.6667,0.76929,10.5125,-3.8464,-9.4875,14.1023,1.282,-0.76929,0.76929,-3.3333,3.3333,-0.76929,-55.1284,3.8459,
-13.5894,0.25635,15.1284,-0.25635,1.2822,18.7183,3.3335,-7.9487,-5.3843,-7.4355,2.3081,-0.76904,-56.1536,1.7949,
-15.8975,4.6157,7.6924,-0.51269,0,24.1025,0,-11.7949,-9.7437,-3.0767,1.0259,4.1025,-57.4358,4.1025,
-23.5898,2.564,-7.1797,-10.2563,-14.8716,10.2563,1.0259,-7.1797,1.5386,2.0513,0,0,-59.4871,2.0513,
-12.8208,3.5894,5.1279,0,0.12842,13.8462,0,-1.0259,-1.0259,-4.1025,3.5894,-2.5645,-60.5129,5.1279,
-10,3.3335,8.9741,4.3589,5.8975,21.7949,-0.76904,-5.3848,-12.0513,-10.5127,0.76904,-4.8721,-64.8718,3.8462,
-17.4358,4.6155,1.5383,-5.1282,-7.6926,16.9231,9.2307,-4.1028,1.0256,-1.0256,3.0769,-3.0769,-61.0256,1.5383,
-18.718,1.7947,3.3333,-6.9231,-1.7947,10.5129,1.282,0.76929,-0.76929,-2.8206,0.76929,-4.3591,-65.8975,1.282,
-13.0769,-1.282,8.9744,2.8206,12.5642,15.6409,-1.7947,0.25659,-9.4871,-8.4617,1.282,-0.25659,-68.4614,3.3333,
-20.2566,0.25659,-0.25659,2.3079,0.76929,13.0769,4.3591,-5.3845,-6.9231,-8.4617,2.3079,4.3591,-64.3589,-1.282,
-23.0769,4.1023,-2.5642,-1.0256,-9.2307,7.6921,2.5642,1.5383,-5.1282,-8.2053,2.5642,2.5642,-61.0256,1.0256,
-16.6667,0.25659,0.76929,-3.3333,-0.25659,12.5642,0.25659,7.4358,-6.9231,-6.9231,4.8718,-3.3333,-58.718,6.9231,
-19.7437,-2.3076,-5.3843,-7.436,-2.3076,12.564,9.4873,4.8721,0.25635,-0.25635,13.5898,2.3076,-51.5383,5.8975,
-23.0767,-1.0254,-1.0254,-5.1279,-0.5127,9.7437,11.7949,3.0771,3.0771,-2.0513,16.9233,13.8462,-51.7949,0.5127,
-18.2051,0.25635,12.0513,2.3076,13.5898,19.231,-0.25635,-2.3076,-8.4614,-10,5.8975,12.564,-58.7178,-1.2817,
-19.4871,3.5896,4.6155,1.0256,3.5896,24.6155,-1.0256,-2.0515,-11.7947,-9.7434,-1.0256,7.1794,-57.4358,6.1541,
-26.4104,1.7947,-10.3845,-12.0515,-11.4104,14.1028,4.8718,2.3079,-1.7947,-6.9231,3.3333,1.7947,-52.5642,9.9998,
-20.769,1.7949,-7.9487,-12.564,-21.7949,11.5386,5.3848,2.3076,2.3076,-1.7949,6.4102,-3.3335,-47.436,4.8716,
-11.0254,2.3076,2.8208,-0.25635,-6.7949,18.2051,8.4614,-4.8716,0.25635,0.25635,2.3076,-4.3589,-46.4102,-3.333,
-8.4612,8.9744,4.3591,8.9744,8.2051,24.3591,5.8977,-9.4871,-4.3586,-5.8972,1.282,-1.282,-51.5383,-1.7947,
-12.5645,12.0513,1.7949,10.5127,14.6152,28.9741,-3.8462,-11.0259,-5.8975,-11.0259,3.333,-1.7949,-50.0002,4.8716,
-17.6921,6.9231,-1.7947,4.3591,-0.38476,24.8718,1.7947,-6.4104,3.3333,-4.8718,4.8718,-7.949,-40.2563,6.4104,
-20,4.6152,-0.5127,0.5127,-15.3848,22.564,8.2051,-1.0259,3.0767,-4.1025,2.564,-10.2563,-40,3.5898,
-20.5127,0.5127,6.1538,2.564,-0.38476,26.1538,3.5898,-10.2563,0,-9.231,0,-9.7437,-41.0256,1.5386,
-23.0769,-1.5383,5.1282,1.5383,-1.5383,17.4358,6.6667,-13.3333,10.7693,-1.5383,3.5896,-4.6155,-32.8206,4.6155,
-31.0256,-0.76929,-6.9231,-7.4358,-16.5383,7.4358,9.9998,-4.3591,13.0769,4.8718,9.9998,0.76929,-31.0256,1.7947,
-35.3848,-2.5645,-10.7695,-15.3848,-15.8975,11.2817,11.2817,0,11.7944,5.6406,15.3843,0.5127,-32.3079,0,
-25.8977,-1.282,-4.3591,-8.4617,-7.949,18.2048,11.5383,-6.9231,12.051,1.7947,10.5129,1.282,-35.6411,2.3074,
-17.4358,1.0256,-3.0769,1.0256,-10.2561,14.8718,7.6926,-18.4617,8.718,1.0256,6.1541,-2.5642,-42.0513,-1.0256,
-14.3591,5.1282,-1.0256,6.1536,-8.2053,13.8459,2.051,-20.0002,3.0769,1.0256,7.6921,-4.1028,-43.5901,-3.0769,
-5.8972,9.4871,5.3845,5.8972,-1.282,20.2566,0.76929,-12.5642,-0.76929,-7.4358,5.8972,7.9485,-44.3591,-3.8459,
-5.3845,6.4104,1.282,-3.8459,-6.9231,16.1541,15.1282,-14.615,12.0515,-3.3333,10.0002,7.949,-35.6409,-1.282,
-10,5.8975,-6.4102,-10,-14.6152,10,30,-12.564,27.0515,11.5386,21.2822,-5.8975,-20.6409,6.9233,
-10.769,6.1538,-6.6665,-12.8203,-20.5127,4.6152,23.5898,-2.564,27.1797,3.5898,19.4873,-13.3335,-24.1025,2.564,
-3.0769,9.7439,1.0256,-4.615,-19.4871,5.1282,25.1282,6.1541,23.5901,-1.0256,17.949,-7.1794,-27.1794,-3.5896,
-2.0515,9.2307,-2.0515,1.0256,-22.0515,0.51294,29.2307,-0.51294,23.5896,2.5642,15.3845,-10.2566,-26.1541,-7.6921,
-1.7949,8.4614,1.7949,8.4614,-29.4873,-2.8208,33.0767,-1.7949,30,6.9229,15.1279,-17.1797,-22.3076,-7.436,
-5.1279,5.1284,2.564,9.231,-44.1025,-10.769,27.6924,-2.564,28.2051,4.6152,6.6665,-26.6667,-27.6924,-15.3848,
0.5127,7.1792,6.6665,11.7949,-30.2563,-8.7183,21.0254,-6.667,18.9741,-0.5127,6.6665,-18.9746,-34.8721,-17.436,
4.1025,13.8462,11.2822,18.4614,-15.2563,-4.1025,22.564,-6.1538,16.9229,-5.1284,9.7437,-11.2822,-34.8721,-11.7949,
-2.8208,16.6665,7.436,19.2305,-29.4873,-13.5898,33.0767,-1.7949,26.9229,1.7949,6.4102,-16.1538,-25.3848,-8.4614,
-3.0769,12.8206,3.0769,12.3079,-42.0513,-18.9744,36.9231,-4.1028,30.2566,5.6409,5.1282,-23.5896,-25.1282,-13.8464,
3.8459,12.051,2.8206,15.1282,-38.2053,-14.1028,24.8718,-2.8206,19.7434,-5.8977,7.4358,-24.3591,-36.6667,-18.718,
2.0513,15.3843,0,21.5381,-31.7949,-9.7437,22.564,0,21.5381,-4.6157,12.8203,-15.8975,-27.6924,-9.231,
1.0256,13.8464,-4.1023,14.3591,-28.7178,-3.0769,34.8718,-4.1023,35.385,10.2566,20.0002,-10.2561,-12.8206,-1.0256,
-1.5386,5.6411,-10.769,5.1284,-31.7949,1.5386,22.564,-9.2305,24.1025,1.5386,10.7695,-17.9487,-26.6665,-8.7178,
-1.0256,4.1023,-4.6155,16.4099,-34.3591,7.6921,12.3074,1.0256,13.3333,-10.7693,10.2561,-16.4104,-33.8464,-7.1799,
-3.3335,2.8203,-0.25635,20.2563,-33.0771,7.436,12.0513,0.25635,11.5386,-11.5386,12.564,-9.4873,-31.0259,-3.3335,
-7.436,3.8462,-1.7949,13.5898,-33.5898,6.9229,14.1025,-4.8721,18.2051,1.7949,10,-12.0513,-23.8462,-1.7949,
-12.0513,0.25635,-11.5386,10,-45.8975,-0.25635,18.2051,0.25635,25.8975,9.4873,7.9487,-19.231,-19.231,-0.76953,
-11.0259,-4.3594,-13.0771,7.9487,-39.7437,0.25635,16.6665,3.333,19.2305,3.8462,10.5127,-12.0513,-22.8208,-0.25635,
0.25635,-3.3335,1.9229,8.9741,-24.7437,10,14.1025,-1.2822,14.6152,-0.25635,14.6152,-5.3848,-19.7437,-1.7949,
-0.51294,-2.5642,2.0515,12.3079,-22.5642,0.51294,10.7693,-1.5383,15.8977,0.51294,10.2566,-18.9744,-15.3845,-5.6409,
-4.8718,-0.76929,-5.8977,18.718,-24.3591,0.76929,14.1023,4.8718,14.615,2.3074,9.9998,-23.3335,-18.2053,-0.76929,
2.8208,-6.9229,7.436,20.7695,-9.3591,15.7693,6.4102,-3.333,-0.38501,-9.4873,7.9487,-8.4614,-26.9229,-1.7949,
8.9746,-2.8203,19.7437,25.3848,5.6409,27.9487,-0.76904,-4.3589,-7.4355,-12.0513,0.76953,-0.25635,-24.8716,0.25635,
-6.0254,-4.3591,4.7437,15.1282,-9.3591,12.9487,6.9231,4.8718,7.5645,2.9487,-3.3333,-15.2563,-20.7693,4.3591,
-20.2563,-13.5898,-10.2563,0.76904,-24.3591,-0.76904,15.6411,9.4873,21.2822,12.564,9.4873,-8.9741,-13.5898,7.436,
-18.9744,-19.9998,-11.282,-9.2307,-17.9485,7.6926,4.6155,-1.0256,8.2053,1.0256,13.8464,5.6414,-17.4358,4.6155,
-13.8462,-15.8975,-1.0259,-6.6665,-18.4614,7.1792,2.564,0,5.6411,0,7.6924,0.51269,-21.5386,5.1279,
-16.1538,-10.5127,-10,2.8203,-32.0513,3.3335,0.25635,3.3335,4.3589,-0.25635,2.8203,-7.9487,-21.2822,2.8203,
-22.5642,-10.7695,-10.7695,9.2305,-34.3591,4.6152,-1.5386,1.5386,6.6665,1.5386,9.2305,-3.0771,-14.3589,5.1279,
-25.8975,-16.6667,-1.282,6.4104,-33.0769,2.8206,-4.8718,0.76929,4.8718,1.7947,5.3845,0.76929,-17.6921,-0.76929,
-10.8975,-7.9487,13.718,21.2817,-18.0769,17.8206,-5.3848,9.4873,-3.3335,0.25635,1.7949,10.5127,-21.7949,-0.25635,
-9.7434,-7.1794,6.1541,18.9744,-7.1794,22.0515,-4.1023,9.2307,-4.1023,-1.0256,1.0256,9.7439,-18.4617,9.2307,
-23.5896,-11.2817,-3.0767,9.231,-22.1794,12.8208,-5.6411,5.6411,1.5386,3.0771,-1.5386,8.7183,-14.3589,17.9487,
-21.0254,-11.2817,2.0513,19.4873,-24.6152,12.8208,-8.2051,6.667,-2.0513,3.5898,-2.564,14.8721,-18.4614,12.8208,
-17.9487,-7.6924,2.5645,27.1797,-13.333,20.5132,-7.6924,11.7949,-7.1792,0,0,10.7695,-21.0254,10.7695,
-26.4104,-4.8721,6.4102,24.3589,-6.9233,26.9229,-7.9487,16.6665,-8.4619,-0.25635,0.25635,8.4614,-15.6411,16.6665,
-39.4873,-9.7437,7.6924,20.5127,-5.1284,25.6411,-9.7437,12.3076,-5.1284,-0.5127,0.5127,10.769,-14.3589,14.8716,
-52.8203,-15.3848,2.564,15.3848,-2.0513,18.9746,-17.436,2.0513,-9.7437,-6.6665,3.0771,8.2051,-25.6411,8.2051,
-62.564,-14.3589,6.1538,13.8462,-2.0513,17.436,-17.9487,2.0513,-10.769,-4.1025,6.6665,9.7437,-25.1279,10.2563,
-75.3848,-17.4358,0.51294,6.1536,-12.8206,12.3074,-13.8464,-0.51294,-7.1794,0.51294,1.5383,6.6667,-14.3591,10.7693,
-81.0259,-18.4617,-4.6157,0,-13.8464,12.3076,-12.8208,4.6152,0.5127,6.6665,0,1.5381,-12.3076,15.3843,
-82.8208,-21.282,0.76929,3.8459,-1.7952,14.615,-18.2053,4.8718,-3.8464,0.76929,-0.76929,4.3586,-23.3335,13.0769,
-84.1025,-19.4871,10.2566,14.8718,5.1282,18.4617,-17.4358,1.0256,-12.8206,-3.0769,-1.0256,12.8206,-25.1282,12.8206,
-87.9487,-19.2307,4.8718,14.1023,-0.76929,16.6667,-16.1541,7.4358,-12.0515,0.76929,-2.3079,11.5383,-20.2566,18.2053,
-90.5127,-20.769,-7.9485,6.9231,-3.3333,16.6667,-13.0769,15.1282,-3.3333,6.9231,3.3333,11.5388,-16.1538,22.3079,
-90.7693,-21.0256,-6.1536,9.2307,10.2566,26.1541,-17.9485,10.7693,-15.3845,-3.0769,3.0769,17.4358,-22.051,13.8464,
-91.7949,-22.051,3.0769,13.8464,22.0515,29.2307,-26.1536,3.0769,-28.718,-15.3845,-3.0769,15.8977,-29.2307,6.1541,
-95.8975,-15.3848,-3.5898,13.333,7.0515,23.5898,-17.9487,8.2051,-13.718,-0.5127,0.5127,14.8716,-21.5386,18.9741,
-106.1541,-14.3591,-14.8721,9.2305,-7.9485,17.9487,-13.8464,15.3843,0,9.7432,0,13.8457,-18.9746,24.6152,
-107.4358,-19.2305,0.12793,13.5898,-4.8716,22.8208,-20.7693,13.0771,-11.0254,1.7949,-1.7949,18.7178,-25.8975,17.1797,
-105.6409,-19.4871,5.6414,11.7952,7.1794,30.7693,-27.6921,3.0769,-20.5125,-3.0769,-7.1794,21.0256,-23.5896,15.8977,
-100,-14.3591,0.51294,11.282,14.3591,42.0515,-24.1025,6.1541,-18.9744,-0.51294,-6.1541,24.6155,-12.8206,23.0769,
-103.5898,-23.0769,10.7693,14.8718,15.8972,45.1282,-39.1025,9.2307,-33.9744,-14.3591,-9.2307,23.0769,-27.8206,12.8206,
-114.3589,-26.6665,8.2051,11.7949,8.7178,44.1025,-45.6411,14.8716,-41.5386,-13.3335,-8.2051,27.6924,-34.8716,14.3589,
-119.4871,-27.1794,-6.7949,2.0513,6.1538,41.5386,-30.6411,27.6924,-26.5386,1.6665,-2.0513,35.3848,-19.8716,29.3589,
-113.3333,-27.1794,-3.5898,15.3848,21.1538,47.1797,-33.3333,30.7695,-30.2563,3.5898,-6.1538,40,-11.7949,35.3848,
-118.4614,-28.2048,9.2307,26.1541,31.7952,51.282,-48.3333,15.8977,-45.2563,-9.2307,-14.8718,38.9744,-26.7949,23.5901,
-124.8718,-23.3333,1.282,17.1794,23.8464,51.5383,-50,19.2307,-40.2563,-1.282,-12.5642,40.2566,-29.4871,32.5642,
-126.1538,-23.5896,-3.5896,7.1794,31.7952,51.282,-42.0513,33.8464,-33.3333,3.5896,-7.6921,47.6921,-14.4871,44.1028,
-133.5896,-32.564,2.8206,7.4363,32.5642,52.0515,-47.9485,27.4363,-45.8972,-2.8206,-7.4358,52.0515,-15.6409,38.718,
-141.0256,-34.3589,2.5642,6.6667,31.282,51.7952,-54.8716,17.949,-51.282,-2.5642,-12.3074,50.7693,-22.564,36.4104,
-138.4614,-34.3589,3.5898,4.6152,46.1538,56.9229,-61.5386,23.0771,-53.8462,-3.5898,-16.4102,53.8462,-19.4873,38.9741,
-145.6409,-41.0254,9.2307,7.1794,31.1538,53.8464,-74.3589,25.6414,-63.5896,-7.1794,-20.5125,56.9231,-23.0769,33.3337,
-157.4358,-45.6411,7.1794,5.6409,16.1538,44.6155,-82.564,20.0002,-64.1025,-5.6409,-25.1282,55.8977,-34.3589,32.3079,
-142.4358,-38.7178,0.76929,-0.76929,31.1538,51.5383,-67.564,24.3591,-49.1025,5.8977,-15.1282,57.1794,-19.3589,45.3845,
-127.4358,-33.0769,-2.8206,-1.7947,46.1538,53.0769,-52.564,24.8718,-46.4104,6.4104,-7.9487,50.5129,-4.3589,43.3333,
-122.8208,-37.6924,1.282,-1.282,61.1538,38.0769,-49.4873,17.6921,-42.8208,7.9485,-12.5642,40.2561,-4.3591,39.7434,
-122.8203,-45.3845,5.3848,-3.8462,76.1538,23.0769,-55.6409,8.4614,-47.4358,3.8462,-19.2307,39.231,-19.3591,41.2822,
-112.3076,-38.4614,10.2563,11.1538,91.1538,20.5127,-61.0256,6.6665,-62.4358,-6.6665,-16.9229,46.1538,-20,40.5127,
-117.9487,-39.4873,7.6921,19.9998,106.1538,24.1028,-65.1282,12.3079,-66.1538,-7.6921,-20.5129,41.5383,-14.8718,37.4358,
-130.7693,-44.1028,0,12.8203,112.3076,11.7949,-56.4104,18.9741,-51.1538,0,-26.1541,34.8716,-9.231,38.9741,
-118.7178,-31.0256,5.3848,12.564,100.2563,0.25635,-41.4104,20.2563,-36.6665,-0.25635,-20.2563,31.5386,-4.3589,35.6411,
-103.7178,-16.0256,20.3848,25.3845,101.7947,0.25659,-26.4104,20.2566,-25.8975,-0.25659,-5.3845,31.0256,-1.7947,28.4617,
-88.7178,-4.1025,34.3589,33.3335,88.2051,-6.6665,-13.8462,15.3848,-21.0256,2.0513,-4.1025,17.9487,-2.0513,18.9741,
-79.7437,-4.3591,20.2566,30.5129,73.2051,-21.6665,-4.8718,5.3845,-7.9485,3.3333,-6.9231,2.9487,0.25659,5.3845,
-66.6667,4.1025,20,28.7178,58.2051,-33.8462,0.5127,-0.5127,3.0771,0.5127,-5.1284,-0.5127,-2.0513,-1.0254,
-64.3589,3.8462,16.667,23.3335,43.2051,-38.7178,4.3589,-1.7949,4.8721,-4.8716,-3.8462,-2.8203,-8.4614,1.7949,
-67.6921,0.51269,8.2051,16.9233,31.2822,-46.6665,14.3589,-5.6411,12.8208,-1.5386,3.0771,-13.8462,-4.6152,-0.5127,
-57.1797,1.7949,8.9741,14.1025,23.8462,-50.5129,11.5381,-10,8.9741,-1.7949,4.3589,-15.6411,-6.4106,-11.0259,
-51.0256,3.3333,11.0256,12.051,16.1541,-52.0513,11.0256,-7.949,7.9485,-3.3333,3.8459,-14.1028,-11.5383,-11.5383,
-59.2307,-1.282,1.282,8.4617,1.7952,-53.5896,15.1282,-4.3586,14.6155,2.3079,4.8718,-18.2048,-10.5125,-5.3845,
-55.6409,-0.76929,0.76929,13.0769,1.282,-46.9231,19.7439,-1.282,21.282,14.1028,8.4617,-11.0256,-2.3074,-2.8206,
-54.1025,-3.8459,3.8459,11.0256,10.0002,-50.5127,17.1794,-8.9744,15.6409,8.9744,6.4104,-9.4871,-4.3591,-9.4871,
-48.4617,0.25635,11.5386,13.0767,19.2305,-45.3848,13.5898,-4.3589,8.9741,-0.25635,9.4873,-6.4102,-6.4102,-1.7949,
-47.4358,-2.8203,12.564,15.1284,13.5898,-42.3076,4.3589,-1.2822,6.4102,-4.8716,5.3848,-6.9229,-7.9487,1.2822,
-55.3845,-6.6665,6.1538,10.2563,2.564,-51.282,4.6152,-4.6152,14.8721,3.0771,4.1025,-13.8462,-6.1538,-2.564,
-58.718,-7.436,2.8203,4.8716,3.8462,-53.5898,6.9229,-10,12.564,5.3848,5.3848,-16.1538,-4.8716,-2.8203,
-43.718,-3.8459,17.8203,17.1794,18.8462,-38.5898,7.949,-2.8206,5.8977,-1.282,7.949,-3.8459,-3.3333,1.282,
-43.5896,-8.2048,21.5383,13.3333,31.282,-37.9487,3.5896,-0.51294,7.1794,-5.6409,2.5642,-4.6155,-6.6667,0.51294,
-57.9487,-15.8975,8.2053,-1.6667,16.282,-49.7437,9.7434,-10.7693,17.9485,5.1282,5.1282,-14.8718,-1.0256,1.0256,
-55.6411,-14.1023,9.4871,-1.282,14.1028,-47.4358,8.9744,-9.9998,15.6409,3.8459,5.3845,-14.1023,-1.282,1.282,
-54.1023,-14.1025,9.4873,-0.25635,17.1797,-46.9229,6.9233,-10.5127,12.0513,1.2822,4.8721,-14.6152,-3.333,0.25635,
-51.5386,-12.5645,10.5127,1.7949,20.769,-45.3848,5.8975,-10,9.4868,-0.25635,4.8716,-14.1025,-3.8462,0.25635,
-48.4614,-11.0256,11.5383,4.3591,25.3845,-43.3333,5.3845,-8.9744,7.4358,-0.76929,5.3845,-13.0769,-4.3591,0.76929,
-45.6411,-8.718,13.3333,6.6667,29.7434,-40.5127,5.1282,-7.6921,5.6409,-1.5383,6.1541,-11.7947,-4.1023,1.5383,
-42.3076,-6.9231,15.1282,9.4871,34.6155,-38.2051,4.8718,-6.4104,3.8459,-2.3079,7.4358,-10.5129,-4.3591,2.3079,
-38.2051,-3.8462,18.2051,13.5898,40.769,-34.6155,5.3848,-3.8462,2.3076,-2.3076,8.9741,-7.436,-2.8203,4.3589,
-32.0513,-8.9744,21.282,8.4617,43.3333,-29.4873,6.9231,-5.3845,3.8459,1.282,6.4104,-4.3591,-1.282,-3.3333,
-37.6924,-10.5129,13.0769,-0.76929,41.7947,-26.4104,3.3333,-2.8206,1.7947,3.3333,3.8459,-4.8718,0.76929,-1.7952,
-31.5386,-1.2822,13.5898,9.4873,49.4873,-19.7437,2.3076,1.2822,-2.3076,-2.3076,8.9746,-2.3076,-2.8203,4.8716,
-22.3079,0.25659,20.2566,19.2307,54.6155,-19.7434,2.8206,-3.8459,-2.3079,-8.9744,10.5129,5.8972,-8.4617,-0.25659,
-24.1025,0.5127,16.9229,14.3589,39.6155,-21.0259,-0.5127,-5.1284,1.5386,-8.2051,6.6665,5.6411,-6.6665,-3.5898,
-29.231,-0.5127,4.1025,4.1025,24.6155,-15.8975,0.5127,-1.0259,4.1025,-5.1284,4.6152,-9.3589,-7.1797,0.5127,
-27.6921,-1.0256,2.0515,4.6155,27.1799,-10.7688,4.6155,-1.5383,1.0256,-5.1282,6.1541,-17.9485,-12.3074,1.0256,
-20.7693,4.8718,17.0515,18.2053,36.6667,-10.5129,7.4358,1.282,-1.282,-6.4104,11.5383,-2.9485,-11.0256,-2.3079,
-21.0259,3.5898,16.9229,20,25.1279,-15.8975,5.6411,-0.5127,-4.6157,-7.6924,6.6665,0.5127,-14.8721,-6.667,
-21.7949,2.8203,3.8462,12.564,19.231,-15.1279,6.4102,-4.8716,-3.8462,0.76904,1.7949,-4.3589,-12.0513,-0.76904,
-23.8462,-3.8462,-0.25635,1.7949,14.6157,-24.3589,5.8975,-6.4102,2.8208,0.25635,3.8462,-10,-5.3843,3.3335,
-18.7178,-5.8975,9.4873,2.3076,11.5386,-27.9487,4.3589,-2.3076,5.8975,-5.3848,13.0771,-5.8975,-4.3589,2.3076,
-13.5896,-2.8206,8.4617,3.8459,14.1028,-22.3079,5.8972,0.25659,4.8718,-2.8206,21.7947,-0.25659,-4.3591,-0.76929,
-13.8462,-1.0254,0,-2.0513,11.2822,-24.1025,12.3076,6.1538,9.231,0,17.436,-9.7437,-4.6152,1.0259,
-6.4104,0.76929,11.5383,7.949,26.2822,-12.051,8.4617,10.0002,-1.7947,-6.4104,2.436,-12.5642,-9.4871,1.7947,
-1.5386,1.5386,24.1025,18.4614,41.0254,2.564,3.0767,7.6924,-11.7949,-10.2563,-2.0513,-6.1538,-8.2051,-3.0771,
-7.1797,2.0513,11.2822,10.2563,27.6924,-12.3076,4.6152,7.6924,-2.0513,-5.6411,6.1538,-10.769,-4.6152,-2.564,
-12.051,-0.76929,-3.7178,2.3079,12.6924,-27.3076,5.8977,7.949,6.4104,-1.282,3.8464,-18.718,-12.5642,0.76929,
-7.9487,-3.8462,-1.7949,4.3589,12.0513,-22.3076,3.8462,4.3589,5.3848,1.7949,3.3335,-7.9487,-16.6665,-2.3076,
0.51269,-0.5127,8.2051,14.3589,27.0513,-7.3076,0,0,-1.0254,-0.5127,5.6411,7.0513,-10.769,-2.0513,
-0.76904,-0.76904,7.9487,13.5898,28.9746,-7.436,0.76904,-2.3076,-3.3335,-7.436,3.8462,6.9233,-9.4873,1.2822,
-3.3335,0.25635,6.9229,8.4614,16.1538,-14.1025,2.3076,3.8462,-2.3076,-5.3848,4.8716,-2.8208,-12.5645,-0.25635,
4.8718,4.3591,11.0256,12.5642,24.3591,-5.3845,-3.8464,7.4358,-6.9231,-7.4358,-0.25659,0.25659,-17.6921,-6.4104,
8.2051,0.5127,11.7949,15.8975,33.3335,0,-9.231,0,-14.3589,-12.3076,-15.2566,6.1538,-21.5386,-7.6924,
3.3333,-1.282,8.9744,14.6155,18.718,-4.3591,-1.7947,5.3845,-4.8718,-0.76929,-12.5642,6.9231,-16.1541,0.76929,
-2.8206,-5.8977,-1.7952,4.8718,3.718,-15.6409,-0.25659,7.9485,5.8972,5.3845,2.4358,0.25659,-15.6409,4.3591,
1.282,-8.4617,-1.282,4.3591,7.4358,-17.6926,-5.3845,3.3333,-2.8206,-2.3079,14.6155,4.8718,-21.7952,2.8206,
1.7949,-8.4614,4.3589,4.8721,10,-20.769,-8.4614,2.8208,-12.564,-7.9487,11.0259,5.8975,-28.4614,-1.7949,
4.3589,-4.8716,5.3848,1.7949,1.7949,-19.2305,-1.7949,7.9487,-4.3589,-5.8975,17.1797,3.8462,-21.2817,-2.8203,
10.7693,-1.5383,4.1028,-0.51294,11.282,-8.718,0.51294,7.6926,-2.5642,-10.2561,27.1794,4.1028,-14.3591,-1.0256,
11.2822,-4.1025,4.6152,0.5127,20,-5.1284,-2.564,5.1284,-6.1538,-9.231,28.2051,5.6411,-21.5386,-0.5127,
5.6409,-8.2053,-0.51294,2.0515,7.6921,-11.282,-6.1541,3.5896,-7.1794,-10.2566,24.6155,5.1282,-27.6921,0.51294,
8.9746,-0.25635,-3.3335,3.8462,0.25635,-10,-5.8975,8.9746,-7.436,-12.0513,26.9233,8.4614,-21.7949,3.8462,
18.7183,0.25635,-0.25635,7.436,15.1284,-2.8203,-5.3843,9.4873,-11.5386,-14.6152,26.4102,8.9746,-24.8716,-5.3843,
17.1797,-1.2822,1.2822,8.4614,22.3076,-3.3335,-3.3335,7.436,-10,-14.1025,21.2822,6.9229,-28.4614,-6.4102,
6.6665,-2.564,-6.667,-4.6152,7.3076,-14.3589,5.6411,10.769,4.1025,-2.564,25.1279,0.5127,-16.4102,2.564,
9.7437,-3.5898,-7.6924,-7.6924,-7.6924,-21.5383,10.2563,16.9233,10.7695,2.0513,34.8721,-2.0513,-11.2817,2.564,
15.3848,-4.1025,5.6411,5.1284,1.5386,-16.4102,-2.0513,9.7437,-4.2305,-10.2563,27.1797,4.1025,-26.2817,-1.5386,
8.7178,-5.6411,2.564,1.5386,0,-16.4102,-2.5645,0,-9.231,-12.3076,16.4102,5.6411,-25.1284,3.0767,
7.1794,-5.6409,-7.1794,-7.6921,1.0256,-18.9744,2.5642,3.0769,-1.0256,-7.6921,14.8718,4.1028,-16.4099,7.1794,
11.7949,-6.1538,2.0513,4.1025,11.2822,-19.4873,-8.7178,3.0771,-14.3589,-20.5127,13.8462,6.6665,-30.2563,-2.0513,
11.5386,-2.8203,15.6411,15.6411,0.25635,-20.769,-5.3848,5.8975,-8.9741,-14.1025,21.2822,10,-28.9741,-0.25635,
5.3848,-8.4614,3.8462,0.64111,-14.7437,-24.3589,-1.2822,6.9229,0.76904,-2.8203,20.2563,1.2822,-18.7178,1.7949,
13.3335,-8.7178,-1.0254,-6.1538,0,-14.3589,3.5898,10.2563,2.0513,-2.0513,22.5645,0,-13.8462,5.1284,
12.8206,-4.6155,2.5642,3.5896,8.2053,-10.2566,0.51294,5.6409,-7.1794,-9.2307,17.4358,-0.51294,-20.5129,-0.51294,
6.9233,-1.7949,2.8208,8.4614,1.7949,-13.5898,-6.4102,4.8721,-10,-10.5127,11.0259,1.2822,-24.8716,-1.2822,
7.436,-1.2822,-1.7949,3.8462,-5.8975,-15.6411,-0.76904,10,0.76904,-0.76904,15.6411,6.4102,-18.7178,8.9741,
6.1541,-2.051,-8.2053,2.5642,-6.6667,-11.7947,-1.0256,9.2307,-1.0256,1.0256,16.9231,4.1028,-20.5129,8.2053,
6.1536,-2.5642,-6.1541,3.0769,2.5637,2.5637,-6.1541,5.6409,-11.7952,-12.3079,9.7434,1.0256,-26.1541,-1.0256,
11.2822,0,-1.5381,0,3.0771,10.2563,-4.6152,5.1284,-11.7949,-17.4355,4.6157,2.0513,-24.6152,-2.0513,
11.282,0.51294,-5.1282,-1.0256,-10.7693,3.0769,1.0256,5.6409,-1.5383,-3.0769,9.2307,-0.51294,-19.9998,5.1282,
8.9746,-3.8462,-4.8716,0.76953,-7.436,0.25635,-0.25635,6.9233,-3.333,-1.2817,12.0513,2.8208,-20.769,6.9233,
9.2307,-5.6414,-5.1282,-1.5383,1.5383,3.0769,-8.718,8.718,-15.8977,-15.8977,7.1794,5.6409,-28.718,2.051,
17.436,-2.0513,-7.1792,0,0,5.6411,-2.564,9.7437,-6.6665,-8.7178,9.7437,2.0513,-24.1025,7.1797,
20.5127,0,-5.6411,5.6406,-4.1025,4.1025,-1.5386,10.769,0,-2.5645,7.1792,-2.5645,-23.0771,7.6919,
18.9741,0.5127,0,7.1792,-4.1025,0,-5.6411,13.8462,-3.0771,-10.7695,2.564,-4.1025,-28.2051,0.5127,
17.1794,-3.8459,2.8206,-0.25659,-2.8206,-4.3591,0.25659,8.4617,3.8459,-10.5129,6.9231,-0.25659,-25.8972,0.25659,
11.7949,-5.6406,-2.0513,-6.1538,-4.1025,-3.5894,2.0513,3.0771,4.1025,-4.6152,9.7437,4.1025,-19.4868,4.6157,
2.8206,-4.3591,-13.0769,-12.5642,-15.6409,-7.4358,3.8459,9.9998,4.8718,-0.25659,10.5129,0.25659,-15.6409,7.4358,
2.564,-5.1284,-16.9231,-14.8716,-22.0513,-10.769,3.0767,7.6924,7.6924,1.5386,10.769,-1.5386,-16.9231,6.6665,
11.2817,-4.6157,-6.1543,-4.6157,-9.7437,0,1.0254,0,5.1279,0,7.1792,9.2305,-16.4106,7.6919,
12.8208,-5.1279,-2.564,-0.5127,-2.564,4.6152,0.5127,2.564,-1.0254,-7.6924,2.0513,4.6152,-17.9487,6.1538,
14.8718,-1.0256,-3.0769,-1.5388,4.1023,3.0769,1.0256,13.3333,-3.5901,-7.6926,5.1282,-1.0256,-16.9231,8.2048,
15.3848,-2.564,-3.0767,-5.1279,5.1284,-2.564,0.5127,8.2051,-0.5127,-3.5898,10.2563,10.2563,-17.436,10.2563,
14.8713,-4.1028,-1.0256,-4.1028,-2.0515,-4.1028,1.5383,-1.0256,4.615,1.0256,10.2561,15.3845,-18.9744,11.7947,
18.4612,-1.0256,3.5896,1.0256,1.0256,-1.0256,-3.5901,-4.6155,-5.1282,-8.2053,3.0769,4.1023,-21.0256,4.1023,
21.5386,-1.5386,7.1797,1.5386,10.769,1.5386,-3.5898,-6.1538,-11.7949,-16.4102,3.0771,3.0771,-20.5127,-4.1025,
15.3848,-2.564,1.0254,-1.0259,1.5386,0.5127,-0.5127,-7.1797,-3.0771,-7.6924,7.1797,8.2051,-17.9487,6.1538,
11.0254,-1.7949,-10.5127,-5.3848,-12.564,-2.8208,3.3335,-5.3848,6.4102,1.7949,4.8716,2.8203,-12.564,18.7178,
15.6406,0.25635,-11.5386,-4.8721,-6.4106,-0.25635,3.8462,-6.4106,4.3589,-1.2822,4.8716,2.8203,-12.5645,12.0513,
17.6926,-0.76929,-7.4358,-0.76929,2.3079,7.4358,-1.282,-6.4099,0.76929,-1.7947,8.4617,4.3591,-17.1794,8.4617,
13.333,-6.667,-9.231,-7.6924,0,7.6924,1.5386,-5.6411,5.1279,0,10.769,-1.0259,-10.2563,13.333,
11.2817,-7.6924,-9.7437,-17.9487,5.6411,0,3.0767,-11.2822,3.0767,-6.667,7.6924,0,-7.6924,5.6411,
13.8459,-4.6155,-7.6926,-13.8464,7.1794,-5.1282,3.5896,-16.4104,4.6155,-1.5383,7.1794,1.5383,-12.3079,4.1023,
18.2051,-4.3589,-9.4868,-5.8975,-0.25635,-2.8203,7.436,-13.0767,9.4873,6.9233,8.4619,0.25635,-8.4614,15.6411,
19.4873,-3.0767,-8.7178,-5.1279,10.2563,6.6665,0,-7.1792,0,-4.6152,8.7183,15.2563,-9.7437,13.3335,
15.3845,-1.0256,-4.6155,-10.2566,7.6921,2.5642,-2.0515,-7.1794,1.0256,-8.2053,10.2566,22.5642,-10.7693,8.718,
12.564,0.25635,-4.8721,-13.0771,-7.3079,-9.4873,7.4355,-10.5127,13.0767,6.7947,7.9487,7.5642,-6.4102,16.1538,
18.7178,1.7949,-5.3848,-7.436,-8.9746,-3.8462,8.4614,-8.9746,16.1538,12.0513,10.5127,-7.4358,-1.7949,17.1792,
18.718,-1.282,-8.9744,-4.3591,1.7947,-1.7947,-1.282,-15.1282,7.4358,1.282,7.4358,1.7947,-5.8977,4.8718,
18.4619,1.5386,-12.8203,-1.0254,-1.0254,0,-2.564,-21.0254,6.667,0,0,3.0771,-12.3076,6.1538,
19.7434,1.282,-11.0256,-1.7947,-3.3333,3.3333,-2.3079,-15.6409,6.4104,-0.76929,0.76929,3.8459,-14.1028,9.9998,
23.5896,-1.0256,-2.5642,-3.0769,7.6921,6.6667,-4.1028,-5.6409,1.0256,-3.0769,5.6409,12.3079,-10.2566,10.7693,
17.6921,-2.8206,-10.0002,-10.5129,-0.25659,7.4358,-1.7947,-6.9231,2.3079,0.25659,2.8206,5.3845,-10.5129,14.1023,
16.9231,-2.5642,-14.3586,-7.1794,-13.3333,10.7693,4.6155,-7.1794,10.7693,2.5642,4.6155,-2.5642,-9.7434,14.3591,
23.0767,-1.0259,0,3.0767,-7.6924,10.2563,-3.0771,-9.7437,0,-9.7437,4.6152,7.1797,-11.2822,5.1279,
23.8464,-0.76929,5.3845,0.76929,-7.9485,8.9744,-3.8459,-16.6667,-3.3333,-8.9744,2.3079,12.5642,-11.0256,4.3591,
17.6924,-2.3076,-9.6155,-10.5127,-22.9485,7.9487,2.8208,-15.6411,5.3848,1.2822,-0.25635,0.25635,-12.564,12.564,
23.3335,2.3076,-18.7178,-4.8716,-19.2305,9.4873,0.76953,-7.436,1.7949,0.25635,-1.7949,-0.25635,-15.1279,15.1284,
29.231,1.5386,-4.1025,5.6411,-4.2305,13.8462,-6.6665,-13.8462,-7.6924,-6.1538,-1.5386,9.231,-17.436,6.667,
28.718,1.5383,-1.5383,3.5896,0.51294,16.9231,-4.6155,-14.3591,-5.1282,-4.1028,-0.51294,10.2566,-10.2566,9.7434,
30.5127,2.3076,-8.4614,-7.9487,-14.1025,5.8975,2.8203,-8.4614,0.25635,-2.8203,-0.25635,4.3589,-5.3848,10.5127,
31.7947,2.051,-10.2566,-10.7693,-14.3591,2.051,4.1023,-10.7693,1.5383,-3.0769,-1.5383,5.1282,-5.6414,4.6155,
25.1279,1.0254,-10.7695,-5.6411,-16.4102,7.1792,-0.5127,-15.8975,1.0254,0.5127,-0.5127,6.1538,-3.5898,8.7178,
29.4875,1.282,-1.282,4.8718,-8.4612,6.4104,-6.4099,-17.6921,-2.8206,-4.3586,1.7952,2.8206,-8.9744,8.9744,
36.9231,4.1023,1.0256,8.718,-1.0256,5.1282,-10.7693,-17.949,-7.6926,-9.7439,-1.5388,5.6409,-17.949,3.5896,
25.6414,1.5388,-12.3074,-2.051,-16.0256,9.2307,-4.1023,-18.4612,2.0515,1.0256,-1.0256,9.2307,-11.282,10.2566,
12.8203,-7.6924,-20.5129,-16.4104,-25.1284,8.2051,0,-20.5129,9.2305,5.1279,0,0.5127,-3.0771,12.3076,
24.6155,-4.1023,-10.7693,-14.3586,-10.1284,12.3079,-1.0256,-17.9485,6.6667,1.5388,1.0256,1.0256,-4.1023,8.2053,
32.5642,2.8206,-3.3333,-5.8977,0.76929,14.6155,-2.8206,-22.3079,3.8459,-0.76929,-0.76929,5.3845,-11.0256,4.8718,
29.231,2.564,-2.564,2.0513,-8.2051,13.8462,-5.1279,-25.1279,0.5127,-0.5127,-3.5898,5.1284,-13.3335,4.6152,
30.2563,-2.0513,-4.6152,0,-1.0259,13.8462,-0.5127,-18.4614,3.0767,0,1.0254,8.2051,-4.6152,10.2563,
24.6155,-7.1794,-16.9231,-15,-10.2561,5.6414,-1.0256,-19.4871,3.5901,1.0256,4.6155,8.718,-4.615,11.282,
27.9487,2.8203,-12.564,-7.9487,-4.8716,15.1284,-6.9229,-20.2563,-2.8203,5.8975,7.9487,18.2051,-8.4614,4.3589,
32.8201,3.5896,-8.2053,1.5383,10.1284,24.1023,-12.8206,-20.0002,-7.6926,-2.5642,1.0256,14.8713,-10.2566,-1.0256,
29.231,1.5386,-15.3843,-3.5894,0,17.436,-5.6406,-15.3843,2.5645,-1.0254,0,2.5645,-5.6406,13.9744,
20.7693,-1.282,-24.3589,-17.1794,-15,2.436,1.282,-18.718,8.4617,6.9231,1.7947,-4.3591,-6.9231,15.1282,
29.4875,2.8206,-19.2307,-11.5383,-15.1282,4.8718,0.76929,-16.6663,6.4104,7.4363,-1.7947,-0.76929,-6.4099,5.8977,
36.6665,8.9741,-12.5645,3.4617,-7.436,13.0767,-8.9746,-12.5645,0.25635,-0.25635,-5.8975,8.4614,-7.9487,9.4868,
31.2817,1.5386,-17.9487,5.6411,-21.0259,8.2051,-10.7695,-20,2.0513,-1.5386,-2.0513,12.3076,-9.231,14.3589,
39.7434,3.8459,-11.0256,-3.3333,-6.0259,12.051,-6.9231,-20.2566,-0.76929,0.76929,0.76929,17.1794,-12.0515,6.9231,
50.2563,14.3589,0,0,8.9741,19.4868,-5.1284,-14.8721,-7.1797,-2.0518,-3.5898,20,-15.3848,4.6152,
46.9229,13.0771,-5.3848,0.25635,2.3076,13.5898,-5.3848,-19.7437,-0.25635,-1.7949,-4.3589,16.1538,-12.0513,10,
47.949,7.949,-13.5896,-6.4104,-2.3079,8.9744,-5.8972,-23.8462,5.3845,2.3079,-5.3845,5.3845,-7.9485,10.0002,
51.5383,5.3845,-12.5642,-7.4358,4.8718,6.9231,-2.8206,-18.2053,2.8206,3.8459,-4.3591,-4.3591,-8.4617,3.8459,
44.8718,4.8718,-6.9231,-1.7952,2.3074,3.3333,-1.7952,-15.6414,-1.282,-3.3333,1.282,4.3586,-9.4871,3.8459,
42.8203,6.4102,-3.3335,0.25635,-1.7949,-0.25635,-4.3589,-20.2563,1.2817,-4.3589,0.25635,13.5898,-8.4614,11.5386,
46.9229,8.4614,-7.9487,-2.8203,0.25635,-0.25635,-2.3076,-23.8462,5.3848,3.3335,-3.3335,6.9229,-6.4102,9.4873,
43.5898,9.7437,-13.8462,-1.0259,0,0,-1.0259,-18.9746,0.5127,5.6411,-3.0771,2.0513,-3.0771,7.1792,
41.7952,5.8977,-11.5383,3.3333,-1.282,-2.3074,-1.282,-17.6921,0.76929,2.3079,-0.76929,6.4104,-1.7947,13.0769,
47.6924,3.0771,-0.5127,8.2051,10.7695,0.51269,-9.7437,-29.2305,-3.0767,-5.6411,-3.0767,13.3335,-9.2305,9.231,
44.3591,3.3333,3.8459,7.9485,13.0769,3.3333,-18.718,-36.1541,-13.0769,-13.0769,-9.4871,7.9485,-14.1028,-3.3333,
36.4104,5.6414,-9.2307,1.0256,-1.9231,1.0256,-3.718,-22.051,1.9231,1.0256,-2.5637,-1.0256,-7.6921,5.1282,
34.8716,6.6665,-20.5129,-2.0513,-16.9231,-4.6152,6.1538,-15.3848,16.9231,11.2817,2.0513,-3.5898,-7.1797,20,
39.9998,1.5383,-5.6409,2.051,-1.9231,-1.5383,-7.6921,-23.0769,3.5896,-3.7183,-8.2053,3.0769,-13.3333,11.282,
41.7947,-1.7947,3.8459,1.7947,13.0769,5.8972,-15.6409,-24.8718,-11.4104,-16.1541,-16.6667,5.3845,-14.6155,3.3333,
36.9231,8.2048,-6.6667,6.1536,-1.0256,5.6409,-5.1287,-18.9744,1.0256,-2.5642,-6.6667,6.6663,-4.1028,16.4099,
31.5383,4.3591,-15.1282,6.9231,-6.4104,-3.8464,-4.3591,-22.8206,8.4617,3.3333,-3.3333,8.9744,-5.3845,16.6667,
36.6667,-1.7947,-8.4617,4.8718,8.5896,2.8206,-9.4871,-21.7947,-0.25659,0.25659,-4.8718,16.1541,-11.5383,9.4871,
34.6152,-0.76953,-9.4873,-2.8208,4.8716,3.8462,-8.4614,-21.2822,0.76904,-0.25635,0.25635,13.0767,-7.436,12.0513,
21.7949,-2.3076,-19.231,-9.4873,-10.1284,-10.5127,-4.3589,-21.2822,12.0513,3.3335,4.3589,6.9229,2.3076,14.6152,
21.7949,-2.3076,-26.4104,-12.0515,-17.1797,-11.0259,-2.3076,-18.2053,14.6152,7.4355,2.3076,13.5898,4.8716,14.6152,
27.6921,0.51294,-23.0769,-10.7693,-3.0769,-3.0769,-3.5896,-23.5898,10.2566,4.6155,-0.51294,8.2053,0.51294,11.7947,
23.8462,1.2822,-9.4873,-4.3589,-16.6665,-7.9487,-6.9229,-25.3845,9.4873,1.7949,1.7949,-1.2822,1.2822,10,
26.1538,-2.0513,-8.7178,-1.0254,-23.0769,-15.8975,0,-15.3843,10.7695,3.5898,5.6411,2.564,0,14.3589,
33.3335,-1.5386,-10.769,0,-8.0769,-11.2822,7.1797,-12.8203,7.1797,0,0,1.5386,-3.0771,15.8975,
35.8972,2.051,3.5896,5.1282,6.9231,-5.1282,-0.51294,-23.0769,0.51294,-8.2053,-8.718,-1.5383,-7.1794,7.1794,
39.4873,1.5386,14.3589,5.6411,21.9231,-9.231,-2.0513,-27.6924,-1.5386,-8.7178,-6.1538,3.0767,-11.2822,3.5898,
35.3848,0,0,1.5386,27.6924,-18.4614,0.5127,-27.1797,-5.1284,-8.2051,-8.7178,3.5898,-10.769,6.1538,
27.4358,-0.25659,-8.9744,0.76929,12.6924,-17.1794,3.8459,-24.3591,-0.76929,-3.3333,-10.5129,1.7947,0.25659,12.051,
28.718,-2.5642,-4.6155,0.51294,9.2307,-12.8206,3.5901,-25.6409,5.1282,-1.0256,-6.1536,-0.51294,0.51294,10.7693,
35.3845,1.5383,2.5642,7.6921,24.2307,-9.2307,-0.51294,-30.7693,0.51294,-5.6409,-7.1794,-5.6409,-4.1028,6.6667,
29.4871,1.7947,2.8206,5.8972,23.3333,-11.0256,-0.76929,-30.0002,-2.3079,-9.4875,-7.949,-10.0002,0.76929,7.9485,
32.0515,-0.25659,4.3591,0.25659,24.8718,-9.4871,0.76929,-21.282,-3.8459,-10.5129,-1.282,-1.282,1.7947,11.5383,
38.4617,-0.51294,4.6155,2.0515,32.3079,-6.6667,0.51294,-20.5129,-7.1794,-11.7947,-2.5642,5.6414,-1.5383,6.6667,
31.2822,3.0771,-0.51269,3.5898,20.5127,-8.7178,0.5127,-22.0513,-2.0513,-8.2051,-7.1797,-1.0254,1.5386,7.6924,
30.2563,5.6411,2.0513,9.7437,23.0767,-5.6411,-0.5127,-16.9233,0.5127,-7.1797,-5.6411,-4.1025,-2.0513,11.7949,
35.3845,1.5383,9.7434,12.8206,36.4104,-4.1028,-0.51294,-22.5642,-4.1028,-8.718,-2.0515,0.51294,-6.6667,6.6667,
35.1282,1.282,9.9998,6.9231,35.6409,-9.4871,-2.8206,-31.5383,-3.3333,-3.3333,-1.282,4.8718,-2.8206,9.4871,
28.4617,1.282,4.8718,-0.25659,31.0256,-7.4358,-1.7947,-29.4873,-0.25659,-2.3079,-1.7947,3.3333,0.25659,16.6667,
29.2307,-3.0769,6.6667,1.5383,39.4871,-1.5383,1.0256,-29.7434,-3.5896,-5.1282,-4.1023,3.0769,-1.0256,6.6667,
36.6667,2.3079,11.0256,8.9744,48.4617,-1.282,-4.3591,-28.4617,-6.4104,-2.8206,-8.4617,8.9744,-3.8459,1.282,
28.9744,1.7947,0.25659,3.8459,33.4617,-12.0515,-7.4358,-28.4617,-0.25659,-2.3079,-9.9998,2.3079,-8.9744,10.0002,
28.4614,0.25635,-0.25635,1.7949,19.7437,-6.9229,4.3589,-26.4102,11.5386,-2.8203,-1.7949,-4.3589,-5.3848,22.3076,
35.6411,-1.7949,4.3589,2.3076,34.7437,1.7949,-2.8203,-30.5127,1.7949,-10,-3.8462,-4.8716,-7.9487,11.5386,
35.3845,2.051,1.5383,1.0256,32.8206,-1.0256,-5.6409,-29.7434,1.5383,-4.6155,-3.5896,-1.0256,-6.1541,4.1023,
31.0256,2.8206,-3.3333,-4.8718,19.7439,-2.8206,3.3333,-23.8462,5.3845,0.76929,-2.8206,-0.76929,-3.3333,11.5383,
39.4873,0,9.231,0,34.3594,1.5386,-1.5381,-24.6152,-5.6406,-12.8203,-3.5894,5.6411,-5.6406,9.231,
37.9487,1.5386,11.2817,5.6411,28.7178,-7.6924,-8.2051,-28.7183,-6.1538,-13.3335,-1.5386,8.2051,-4.6157,1.5386,
27.436,3.3335,-3.7183,-3.3335,13.7178,-19.2307,1.2822,-25.8975,7.9487,0.25635,-4.3589,-4.8716,-0.25635,8.9746,
39.4873,1.5386,-2.564,0.5127,27.6924,-4.2307,6.6665,-20.5127,5.1279,-7.6924,-7.6924,-0.5127,-0.5127,13.8462,
38.4614,-2.564,8.2051,5.6411,34.8721,4.1025,-8.2051,-28.2051,-9.8721,-22.6924,-14.3589,6.1538,-11.2817,2.564,
28.2048,5.1282,-2.0515,-0.51294,19.8721,-7.6921,1.5383,-23.0769,0.51294,-7.6924,-6.1541,8.2048,-0.51294,10.2566,
26.1538,-1.0254,-10.2563,-8.2051,16.9233,-9.231,0,-22.0513,0,0.5127,-4.1025,3.5898,0.5127,9.231,
34.1023,-1.282,4.7437,4.3586,29.9998,1.282,-13.5901,-23.8464,-12.5642,-13.5901,-5.8977,6.9231,-6.9231,6.4099,
27.1794,2.051,-1.0256,2.5637,14.9998,-7.6926,-5.6414,-22.0515,-2.0515,-8.2053,-8.2053,2.5637,1.0256,9.7434,
20.2566,0.76929,-14.6155,-7.4358,-0.0002445,-13.5896,2.3079,-20.7693,5.3845,0.25659,-9.9998,-2.3079,12.0515,9.4871,
25.6409,-0.51294,-3.5896,-1.0256,14.8718,-4.6155,0.51294,-21.5383,1.5383,-4.6155,-5.1282,12.6921,8.718,9.2307,
26.1538,-3.0771,-3.0771,1.0254,16.4102,-6.6665,-0.5127,-21.5386,0.5127,-3.5898,-3.0771,21.5386,3.0767,12.3076,
28.7178,-2.0513,-3.0771,2.0513,17.4355,-6.667,-5.1284,-25.1284,-2.0513,3.5894,-5.6411,10.769,6.1538,11.7949,
32.3076,-3.0771,11.2817,0,22.0513,-8.2056,-9.7437,-32.8208,-5.6411,0,-8.7183,1.0254,4.1025,4.6152,
27.1797,-2.564,10.2563,-2.0513,12.8208,-10.769,-2.0513,-23.0767,2.0513,-2.564,-7.6924,10.7695,5.6411,11.7949,
23.0769,-8.2053,-2.5642,1.5383,4.6155,-7.1794,-2.051,-14.3591,2.5642,-1.5383,-3.5896,17.4358,11.282,15.3845,
26.4104,-12.0515,1.7947,4.3591,11.5383,-1.7947,-13.5896,-26.9231,-11.5383,-4.3591,-7.4358,7.9485,4.3591,4.3591,
27.436,0.25635,7.436,7.436,13.5898,-1.7949,-12.0513,-26.4102,-13.0767,-4.3589,-15.1279,-0.25635,1.7949,2.3076,
27.1792,4.6152,3.5898,5.1279,7.1792,-7.6924,-4.6152,-17.436,-3.5898,-9.7437,-14.8721,-6.1538,11.7949,5.6411,
36.4102,1.0254,14.8716,8.2051,22.1792,-0.51269,-11.2822,-25.6411,-12.8208,-22.0513,-11.2822,-2.564,12.3076,0.5127,
37.1794,-0.25659,17.6921,12.051,25.3845,2.3079,-13.0769,-34.6155,-14.6155,-16.6667,-11.0256,-5.3845,3.8459,0.25659,
30,0.25635,2.6921,7.4355,10.3845,-8.4619,-1.7949,-25.8977,0.38452,-1.6667,-10,-14.6157,7.4355,8.9741,
32.8206,4.1028,0.51294,8.718,7.1794,-1.5383,-1.5383,-21.5383,-0.51294,-6.6667,-8.718,-5.1282,14.8718,8.718,
35.3848,0,5.1284,9.7437,22.1794,7.6924,-8.7178,-31.2822,-15.5129,-20,-12.8203,0,8.2051,0,
36.1541,-0.76929,5.8977,8.4617,17.1794,0.76929,-6.9231,-28.4617,-5.3845,-11.0256,-13.0769,-7.4358,5.3845,3.8459,
36.1538,1.7949,11.0259,4.3589,11.0259,-4.8716,-8.4614,-25.8975,-1.7949,-8.9741,-15.1279,-10.5127,7.9487,5.3848,
37.9485,-1.5383,13.3333,1.5383,24.1023,7.1794,-10.7693,-29.7434,-14.3591,-22.0515,-15.3845,-7.1794,8.2053,2.5642,
35.3845,-0.51294,0.51294,0.51294,22.0515,14.8718,-7.1794,-25.1282,-7.6921,-12.3079,-7.6921,-1.0256,13.8459,12.3079,
24.6155,-2.0515,-10.2566,-3.0769,7.0515,4.1023,-5.1282,-24.1028,5.6409,-0.51294,-4.1028,1.5383,22.5642,14.3586,
27.1794,0.51294,-5.6409,1.0256,-1.0256,-1.0256,-0.51294,-22.5642,5.6409,-1.5383,-5.6409,4.6155,23.5896,9.7434,
29.7437,0.5127,-6.1538,0.5127,7.1797,-0.5127,-3.5898,-21.0259,-2.564,-7.1797,-7.1797,2.0513,14.8716,6.6665,
25.1284,-1.0254,-8.7178,-2.0513,9.231,1.0259,-3.0767,-20.5127,0.5127,-0.5127,-1.0254,3.0771,15.8975,9.7437,
23.3335,0.25635,-6.9229,-0.25635,18.2051,7.9487,-10,-24.8716,-5.8975,-4.3589,-7.9487,11.5386,16.1538,7.436,
24.6152,-2.0513,-3.0771,2.0513,18.9741,10.769,-17.9487,-26.667,-15.8975,-15.8975,-17.436,14.8716,8.2051,2.0513,
27.4358,-2.3079,-4.3591,2.3079,3.9741,4.3591,-5.8972,-19.7434,-3.8459,-6.9231,-9.4871,14.1028,8.9744,8.4617,
27.9485,0.25659,-5.8977,-0.25659,-0.76929,0.76929,0.76929,-17.6921,-0.25659,-5.8977,-6.4104,11.5383,9.4871,14.1023,
29.7437,-0.5127,-0.5127,0.5127,10.769,4.1025,-8.7183,-26.1538,-10.7695,-15.8975,-9.231,6.1538,7.1792,6.6665,
28.4617,-2.8206,0.76929,5.3845,15.6409,4.8718,-18.718,-32.051,-18.2053,-17.6921,-12.5642,3.3333,5.8977,-0.76929,
26.9233,-0.25635,-2.3076,6.9233,6.9233,0.25635,-6.4102,-20.769,-6.4102,-8.4614,-8.9741,6.9233,11.0259,6.4102,
23.5901,-1.0256,-5.6409,5.1282,4.1028,1.0256,-8.2048,-15.8972,-6.6667,-13.8459,-12.8206,8.2053,5.1282,3.0769,
23.333,-0.25635,-2.3076,11.0254,14.6152,10,-22.3076,-20.7695,-15.1284,-17.1797,-11.0259,10,6.9229,0.25635,
22.8206,-1.7947,-5.3845,4.3591,4.3591,1.7947,-13.5896,-23.3333,-4.3591,-4.3591,-2.3079,6.4104,17.1794,5.8977,
22.5637,2.5637,-8.2053,1.0256,-6.6667,-4.1028,-1.0256,-20.0002,3.0769,-1.5388,-5.6414,5.6409,12.8201,7.1794,
19.7434,2.8206,-2.3079,10.0002,-2.3079,2.3079,-6.9231,-21.282,-5.8972,-9.9998,-13.5896,6.4104,7.4358,4.3591,
20.7695,-3.8462,8.4619,15.6411,12.6921,7.436,-20.2563,-29.4868,-20.8972,-21.2817,-18.2051,-0.25635,9.4873,0.25635,
24.1025,-0.5127,5.6411,12.8203,23.5898,10.2563,-20.5127,-30.2563,-26.1538,-26.1538,-24.6152,-10.2563,7.1797,0.5127,
25.3848,6.4102,-5.3848,10.5127,15.1284,16.667,-7.436,-20.769,-11.1538,-17.1792,-21.7949,-11.0254,8.4614,5.3848,
22.0513,3.5898,0,7.6924,7.6924,13.8462,-16.9233,-23.0771,-12.8208,-18.9746,-18.9746,-11.2822,5.6411,0,
17.6921,2.3079,6.4104,6.4104,3.3333,7.949,-21.7947,-29.4871,-15.6409,-19.2307,-18.2053,-11.5383,4.3591,-2.3079,
15.3845,8.718,-4.1028,11.282,-3.0769,10.7693,-6.7947,-19.4871,-0.64087,-4.6155,-9.7434,-1.0256,17.4358,12.6921,
12.3076,3.5898,-11.2822,6.6665,-3.0767,6.1538,0,-17.436,0,-7.1792,-11.2822,-1.5386,19.4873,12.3076,
15.6414,-1.282,1.282,2.3079,3.3333,1.282,-4.8718,-22.3074,-3.3333,-9.4871,-12.5637,-10.5125,15.6414,5.3845,
15.3843,3.5894,4.1025,8.2051,0,0,-6.1538,-25.1284,-3.0771,-4.6157,-10.2563,-14.3589,15.8975,5.1279,
14.3589,3.5898,2.0513,15.3843,10.2563,7.1792,-17.9487,-28.7183,-18.0771,-18.4619,-15.3848,-7.6924,5.1279,-2.0513,
17.6921,3.3333,7.9485,15.1282,15.6409,14.1023,-17.6926,-24.3591,-22.3079,-24.3591,-14.6155,-4.8718,-0.76929,0.76929,
11.282,3.5896,-1.0256,3.0769,0.64087,2.5642,-2.6926,-17.4358,-7.3079,-9.3591,-10.2566,-15.3845,9.7434,13.8459,
10.0002,1.282,-4.8718,-1.282,-14.3591,-4.3591,3.3333,-20.7693,5.8977,2.8206,-8.9744,-17.1794,17.6921,13.5896,
14.8716,-0.51269,2.564,1.5386,0.64087,3.0767,-11.6667,-30.2563,-9.1023,-12.1794,-15.3848,-13.3335,11.2817,0.5127,
18.2053,0.76929,4.3591,5.3845,2.3079,6.9231,-14.1023,-25.3845,-13.5896,-19.2307,-12.5642,-6.9231,8.4617,-0.76929,
15.1284,2.8203,-0.76904,5.8975,-5.8975,0.25635,-0.25635,-17.6924,1.4104,-4.2307,-0.76904,-3.8462,12.564,9.4873,
11.5383,1.282,-6.4104,2.3074,-2.8206,1.7947,-2.3079,-18.2053,-0.76929,-4.8718,0.76929,-5.3845,17.1794,11.5383,
20.7693,0.25659,-0.25659,7.9485,11.0256,12.5642,-10.5129,-18.718,-9.4871,-13.0769,-2.3079,-1.282,18.718,8.4617,
19.231,-0.76904,0.76904,10,12.564,12.0513,-13.5898,-17.6924,-14.6152,-15.1279,-9.4873,-2.3076,8.4614,6.4102,
14.8721,8.2051,-3.5898,7.6924,-2.436,11.2822,-2.0513,-2.6924,-1.0254,-0.12793,-3.5898,-4.6152,15.3848,18.9746,
9.9998,0.76929,-10.5129,-1.7952,-16.1541,7.9485,-2.3079,-3.8464,0.76929,0.76929,-0.76929,-10.0002,20.2561,15.6409,
12.5645,-2.3076,0.76953,3.8462,-1.1541,11.0259,-6.4102,-12.0513,-4.8716,-2.8203,-0.25635,0.25635,17.6924,14.6157,
11.0259,-1.7949,1.7949,6.9233,3.3335,8.4614,-7.436,-6.9229,-7.9487,-4.8716,-4.8716,-2.8203,15.1284,14.6152,
10.2563,-1.5386,1.5386,9.7437,10.769,11.7949,-11.7949,-5.6411,-15.8975,-12.3076,-9.7437,-7.6924,14.3589,8.2051,
2.0513,-2.0513,10.769,11.7949,9.2305,5.1279,-15.8975,-18.4619,-15.8975,-14.8721,-10.2563,-5.1284,9.7437,6.1538,
0.5127,1.5386,12.3076,9.2305,-5.7695,-2.564,-1.0259,-16.9233,-0.89746,-0.5127,-0.5127,-8.7178,17.436,14.8716,
3.0769,1.5383,-1.5383,5.1282,-15.8977,8.2048,-1.5383,-13.3333,2.051,-3.0769,-3.0769,-18.4617,19.9998,11.282,
5.1282,5.6409,-1.0256,12.8206,-0.89771,23.2048,-6.6667,-11.282,-8.2053,-8.2053,-2.0515,-8.718,20.5129,11.7947,
0.76929,11.0256,2.3074,16.1536,-7.4358,38.2048,-10.0002,-8.9744,-6.9231,-6.4104,-4.3591,-0.76929,14.1023,14.6155,
4.1025,20,2.0513,15.8975,-22.4358,45.1284,-12.3076,-2.564,-3.0767,-3.0767,-8.7178,-2.0513,10.2563,17.436,
4.6155,13.8459,1.0256,9.7434,-37.4358,41.5383,-8.718,-8.718,-1.5383,-2.0515,-8.2053,-1.0256,13.8459,15.8972,
-2.3074,6.4104,1.282,4.3591,-47.9485,34.1028,-7.4358,-16.1536,-2.3074,-1.282,-6.4099,1.7952,15.6414,14.1028,
-1.0256,5.1282,1.0256,4.6155,-33.8464,34.3591,-15.3845,-18.9744,-13.3333,-8.2053,-10.2566,1.5383,9.2307,7.6921,
2.3076,4.3589,-2.3076,5.8975,-26.9229,37.1797,-12.564,-18.2051,-12.564,-7.9487,-6.9229,5.8975,10.5127,8.4614,
-3.0769,5.6409,-11.282,1.5383,-32.8206,30.2566,-4.1028,-12.3079,1.0256,-1.5383,-1.0256,3.0769,17.9485,19.4871,
-1.0256,9.7439,-8.718,1.0256,-42.051,28.718,-3.0769,-8.718,6.6667,3.0769,-2.051,-6.6667,21.0256,19.4875,
4.8721,12.0513,1.7949,5.8975,-43.8459,32.0513,-9.4868,-8.9741,-2.3076,-1.7949,-7.9487,-9.4868,14.6157,11.5386,
8.2053,9.2307,7.1794,8.718,-28.8459,37.949,-12.8206,-9.2307,-14.3591,-15.3845,-10.2566,-7.1794,11.282,9.2307,
8.9744,7.4358,6.4104,6.9231,-27.4358,37.6921,-6.9231,-7.9485,-9.4871,-12.051,-6.4104,-6.4104,17.6921,14.1028,
5.8977,6.4104,0.76929,6.4104,-38.2051,28.9744,-6.9231,-7.9485,-4.8718,-2.3074,-6.4099,-0.76929,13.0769,13.0769,
4.3591,0.25659,1.7947,7.4358,-33.5896,26.4104,-13.0769,-12.0515,-15.6409,-8.4617,-9.9998,6.4104,-0.25659,4.8718,
4.6152,-1.5386,6.6665,6.1538,-29.7437,29.7437,-11.7949,-11.2822,-15.3848,-11.7949,-10.2563,1.5386,3.0771,5.1284,
-0.25635,0.76953,-1.7949,0.25635,-43.3333,20.7695,0.76953,-9.4873,-0.38477,-1.2817,-4.8716,-8.4614,14.6157,11.0259,
-4.8721,-0.25635,-11.5386,-1.7949,-47.436,12.564,1.2822,-9.4873,4.3589,1.7949,0.25635,-4.8721,15.1279,17.1797,
3.0767,0.5127,-0.5127,8.7178,-32.436,23.5898,-13.7178,-9.231,-10.6411,-6.667,-5.1284,5.6411,9.2305,14.8716,
6.9231,0.76929,6.4104,12.0515,-24.3591,26.4104,-15.1282,-7.4358,-17.1794,-9.4871,-12.0515,-0.76929,7.9485,7.9485,
3.8464,6.4104,-0.25659,7.949,-19.7434,25.3845,-4.8718,0.25659,-5.3845,-5.8972,-5.8972,-2.3079,11.5383,12.0515,
1.5383,8.718,-2.051,6.6667,-5.6409,33.3333,-13.8459,-1.5383,-15.8972,-9.2307,-3.5896,11.7952,7.6921,15.3845,
0,2.0513,0.5127,5.1279,-10.7695,34.3589,-23.0771,-9.231,-24.6157,-13.8462,-12.3076,12.8203,0,9.7437,
0.5127,4.1025,-0.5127,9.7437,-17.9487,32.8208,-16.4102,-10.2563,-15.8975,-14.3589,-15.3848,1.0259,1.0259,9.231,
5.3845,12.5642,-3.8459,12.0515,-22.8206,33.5896,-3.3333,-4.8718,-0.89746,-5.3845,-5.3845,-0.25659,15.6409,20.2566,
7.9487,11.0254,-4.8721,10,-30,29.4873,-3.3335,-4.3589,0.25635,-0.25635,-6.4102,-0.25635,19.2305,16.1538,
6.6665,11.2822,-2.564,13.8462,-17.9487,31.7949,0.5127,-2.0513,-2.0513,-0.5127,-10.769,-1.0259,20,13.8462,
0.51294,6.1541,-0.51294,7.6921,-2.9487,30.2566,-4.6155,-6.1541,-8.2053,-11.282,-10.7693,-6.1541,17.9485,13.3333,
1.5383,0.51294,9.7439,1.5383,-0.51294,23.0769,-19.6155,-12.3074,-21.0256,-22.051,-13.3333,-11.7947,8.718,3.5901,
6.1536,5.6409,12.3074,6.6667,-14.3591,23.5896,-11.282,-5.6409,-11.282,-11.282,-8.718,-8.2053,16.4104,10.7693,
0,4.1025,1.0259,7.1797,-15.8975,22.564,0,-7.6924,-2.564,-3.5898,-5.1279,-4.1025,23.0771,15.8975,
3.0769,4.1023,1.0256,8.2048,-5.6414,24.615,-3.5901,-8.2053,-2.5642,-3.5901,-1.0256,-2.5642,22.051,13.8459,
6.9233,6.9233,1.2822,7.436,-12.564,21.7949,-4.3589,-7.9487,-2.3076,-3.8462,-1.2822,-6.4102,19.231,8.9746,
6.1536,12.3079,0.51294,10.2566,-18.9744,18.4617,-1.0256,-8.2053,-0.51294,-0.51294,-2.5642,-3.0769,22.051,14.3591,
1.5386,9.231,2.564,8.2051,-12.8203,18.9746,-8.7178,-8.7178,-3.5898,-5.1279,-2.564,-1.5386,20,13.8462,
3.8462,3.8462,4.3589,8.9746,-4.8716,23.8462,-16.1538,-9.4868,-12.0513,-17.6924,-3.8462,-4.3589,14.1025,5.8975,
11.282,6.1541,-1.0256,12.8206,-9.2307,30.2566,-10.2561,-6.6663,-10.7693,-11.7947,-2.5637,1.0256,22.0515,9.2307,
6.1538,0,-11.7949,3.5898,-24.2307,23.5898,-6.1538,-9.7437,-3.0767,0,-1.5386,0,21.5386,9.7437,
0.25635,1.7949,-11.5386,-3.8462,-32.0513,15.1284,-5.8975,-7.4355,0.76953,-0.25635,0.76953,-3.8462,17.6924,10,
1.7949,7.9487,-5.8975,-1.7949,-24.3589,16.6665,-2.8208,-1.7949,3.8462,-1.7949,4.8716,-2.8208,28.4614,12.0513,
0,0,-14.8721,-4.1025,-31.7949,11.2822,-3.0771,-9.231,1.5386,0.51269,0.51269,-5.6411,29.2305,9.2305,
2.0513,1.0259,-10.769,0,-27.1792,10.7695,-5.6411,-8.7178,-2.564,0,-2.564,0,20,13.3335,
5.1282,4.6155,1.0256,-1.0256,-14.8718,16.4104,-11.282,-7.6921,-9.7434,-7.6921,-4.6155,6.1541,11.7947,9.2307,
7.6924,7.6924,3.5898,-3.5898,-17.9487,20.5127,-9.7437,-9.231,-6.667,-5.1284,-4.1025,4.1025,14.3589,8.7178,
6.667,8.2051,0,-1.0254,-27.1794,15.8975,-1.5381,-7.1792,0,0,-3.0767,-1.5381,22.0513,14.3594,
4.3589,3.3335,-5.8975,0.25635,-24.3589,11.0254,0.25635,-3.8462,-0.76904,-4.8716,-4.8716,-0.25635,31.0254,12.564,
4.8721,4.8721,-8.9741,3.3335,-14.1025,16.6665,-7.9487,-3.3335,-11.0254,-11.5386,-7.436,5.8975,28.9746,7.436,
3.3333,3.3333,-5.3845,5.3845,-17.1794,20.2561,-15.1282,-2.8206,-16.6667,-10.0002,-8.9744,2.8206,21.7947,7.4358,
2.0515,1.5383,-6.6667,4.6155,-27.1794,20.5129,-12.3074,8.718,-6.6667,-1.5383,-8.718,-1.5383,27.6926,14.3591,
9.2307,1.0256,-7.1794,3.5896,-17.4363,24.1023,-9.2307,3.0769,-4.1028,-6.1541,-11.282,-1.0256,25.6409,10.7693,
17.1797,2.8203,4.3589,7.436,-2.4363,26.9233,-15.1279,-11.9231,-17.1797,-20.2563,-15.6411,-3.8462,16.6665,-0.76904,
15.6411,10,5.8975,8.9741,-5.8975,24.3589,-13.5898,-10,-11.5386,-10.5127,-9.4873,-10.5127,24.8716,6.4102,
2.3076,0.76904,-9.1025,-6.0259,-20.8975,9.3589,-6.4102,-0.25635,3.4614,0.25635,-10,-22.8206,28.4614,12.564,
6.1541,0.51294,-16.4104,-1.0256,-27.1794,7.6921,-0.51294,-1.0256,6.1541,0.51294,-10.7693,-14.8718,26.6667,12.3079,
8.2051,3.0771,-1.4104,5.6411,-12.1794,16.4102,-15.3848,-13.3335,-8.8459,-9.231,-13.3335,-2.564,16.4102,3.5898,
2.5642,4.6155,1.5383,0.51294,-10.2566,21.5383,-16.4104,-12.3079,-9.2307,-6.6667,-11.282,-0.51294,18.9744,9.7434,
3.3333,9.4875,-0.76929,8.4617,-5.8972,30.0002,-7.4358,-3.3333,-4.3586,-1.282,-13.5896,0.76929,23.8464,16.1541,
0.25635,7.436,13.0771,19.7437,-0.76904,28.4614,-14.1025,-9.4873,-17.1797,-7.9487,-16.1538,-0.25635,17.1797,4.8716,
-3.3333,11.0256,18.2053,20.2566,-5.8972,21.282,-8.4617,-6.4104,-8.9744,-3.8459,-3.8459,3.3333,25.3845,13.0769,
-10.769,6.1538,3.2053,5.6411,-13.3335,12.8208,-8.2051,-4.6152,-0.5127,-4.1025,-6.6665,1.0259,29.231,14.8721,
-7.9487,3.8462,0.76904,2.8203,-5.8975,10.5127,-7.9487,-7.436,0.25635,-0.76904,-8.9746,-0.25635,23.8462,7.9487,
-2.5642,5.6409,1.0256,4.6155,-1.0256,9.2307,-4.1023,-8.718,-4.1023,1.5383,-4.1023,-6.1536,21.0256,8.2053,
-3.0767,4.1025,-6.1538,3.0771,-7.1792,9.7437,4.1025,-6.1538,0.5127,-0.5127,-2.0513,-7.1792,30.2563,12.8208,
-3.5894,3.5898,0,6.667,-9.2305,10.7695,0,-4.6152,0.51318,-0.5127,-3.5894,-1.5381,30.7695,10.2563,
1.7949,5.3848,7.9487,11.5386,-4.3589,10,-7.436,-4.8716,-7.9487,-2.8203,-4.3589,-1.7949,19.231,5.3848,
3.5898,2.5645,2.0513,7.6924,2.0513,13.8462,-9.2305,-8.2051,-14.3589,-11.7949,-8.2051,-11.2817,14.3594,-2.0513,
0.76929,5.3845,2.8206,10.0002,9.4871,20.7693,-12.051,-13.5896,-16.6667,-12.051,-12.051,-1.282,19.7439,-0.76929,
-4.6152,4.6152,2.0513,7.1797,-5.5129,5.7693,-9.231,-14.8716,-7.6924,-2.0513,-9.7437,8.2051,21.0254,7.6924,
-0.25635,1.7949,3.3335,5.8975,-20.5129,-1.2817,-4.8716,-5.3843,-0.25635,0.25635,-0.25635,5.3848,19.7437,9.4873,
0.25635,2.3076,6.9229,11.0254,-5.5129,13.7183,-15.1284,-4.3589,-12.5645,-8.9746,-2.3076,2.3076,15.6411,-0.25635,
-6.6667,3.5896,1.5383,6.6667,-2.0515,17.4358,-9.7434,-6.6667,-9.7434,-1.5383,-3.5896,1.5383,22.0515,1.5383,
-7.6926,3.5896,-2.0515,1.0256,-12.3079,9.2307,-2.5642,-6.1541,-2.5642,3.5896,-1.0256,1.0256,29.7434,9.2307,
-2.8203,1.7949,1.2822,5.3848,-0.76904,16.1538,-13.5898,-5.8975,-13.5898,-7.9487,-6.4102,0.76904,21.2822,5.8975,
-2.564,3.5898,-2.564,7.6924,3.5898,23.5898,-12.8208,-2.0513,-11.7949,-4.6152,-9.7437,2.0513,15.8975,5.1279,
-5.6411,3.0771,-10.769,2.0513,-9.231,12.8208,-3.5898,-7.1792,0,6.6665,-8.2051,0,22.564,6.1538,
0.5127,-2.564,-4.1025,0.5127,-7.1792,1.5386,-3.0767,-8.7178,0,5.1284,-4.6152,0,28.2051,4.1025,
4.8716,-5.3848,5.3848,0.25635,-0.25635,2.3076,-15.1284,-1.7949,-14.1025,-6.9233,-11.0259,1.7949,19.231,0.76904,
2.564,-1.0259,2.0513,-0.5127,0.5127,10.2563,-12.8208,3.5898,-9.7437,-3.5898,-11.2822,-1.5386,17.9487,3.0767,
0,0,-6.1538,2.0513,4.1025,13.3335,-6.6665,-2.0513,-4.1025,0.51269,-5.1279,-10.769,20.5127,2.564,
6.4104,2.8206,-1.282,9.4871,14.1023,23.3333,-9.4871,-4.3591,-11.0256,-6.4104,-6.9231,-8.9744,18.718,1.282,
5.8972,1.282,-0.25659,5.8972,4.3591,21.7947,-10.0002,-3.3333,-9.4871,-9.4871,-13.5896,-8.4617,17.6921,0.25659,
7.4358,1.7947,3.8459,7.4358,6.9231,18.718,-13.5896,-3.3333,-12.0515,-11.0256,-13.5896,-7.949,15.1282,-1.7947,
9.7437,4.1025,4.1025,10.2563,16.4102,23.0767,-20.5127,-4.1025,-26.1538,-20.5127,-11.7949,-6.1538,8.7178,-4.1025,
1.5383,2.5642,-10.7693,1.5383,1.4102,22.0515,-12.3079,1.0256,-13.8459,-11.282,-6.6667,-1.0256,17.949,3.5896,
-4.6155,-3.0769,-20.5125,-7.1794,-13.5898,14.8718,-5.1282,3.5901,1.1541,3.718,-2.5642,2.5642,26.1541,10.2566,
3.5898,-6.1538,-12.3076,-3.5898,1.4102,14.3589,-6.6665,2.564,-2.564,-1.5386,-2.564,1.5386,23.5898,7.1797,
5.3848,-3.8462,-4.8716,0.25635,12.564,15.1284,-9.4873,1.7949,-12.0513,-10.5127,-6.4102,-0.25635,18.2051,0.76904,
1.282,-1.7952,-2.8206,0.76929,-2.436,8.4617,-10.0002,-0.25659,-8.4617,0.25659,-1.7952,3.3333,17.1794,2.3079,
7.9487,-3.3335,-2.3076,2.3076,1.2822,6.9229,-8.4614,-4.8721,-8.4614,-3.3335,-1.2822,3.8462,19.7437,2.8203,
11.5386,-0.25635,-2.3076,0.25635,16.2822,14.6152,-5.3848,-1.2822,-12.0513,-11.0259,-6.9229,0.76904,20.769,2.3076,
4.1025,-3.5898,-0.5127,-2.5645,17.9487,11.7949,-4.6157,0.5127,-7.6924,-2.5645,-4.6157,1.0254,19.4873,0.5127,
2.0513,-6.1543,-2.5645,2.0513,5.6406,7.6919,-9.7437,-1.0259,-7.1797,-1.0259,0,4.6152,21.0254,0,
0,-4.1025,-11.2822,1.5381,9.2305,8.2051,-12.8208,-0.51318,-14.8721,-7.6924,0,2.564,17.9487,4.1025,
0.51294,-3.5896,-6.6667,2.5642,12.8206,10.2566,-8.2053,-4.1023,-11.282,-4.1023,-0.51294,2.5642,16.9231,7.1794,
2.3076,-4.3589,-2.3076,5.8975,8.9746,10,-6.9229,-7.9487,-3.8462,-2.8203,-2.8203,6.9233,21.2822,4.3589,
-0.25635,-6.9233,-9.4873,0.25635,6.4102,10,-5.8975,-4.3589,-4.8721,-5.3848,0.76904,9.4873,22.8203,4.8716,
-2.8203,-6.4102,-13.0767,-5.3848,5.8975,10.5127,-4.3589,1.2822,-6.9229,-1.2822,4.8721,7.9487,17.1797,11.0259,
0,-6.1538,-7.6924,0,8.7178,9.7437,-6.1538,-1.5386,-9.231,-1.0259,0.5127,7.1792,13.8462,11.7949,
0,-5.6411,0,5.6411,12.3076,11.2822,-5.6411,-3.5898,-7.1797,-5.1284,-0.5127,14.8716,14.3589,7.6924,
-10,-4.8716,-0.25635,1.2822,12.0513,10.5127,-8.4614,-1.2822,-3.8462,-1.2822,0.25635,16.1538,11.5386,6.9233,
-13.0769,-8.9744,-2.8206,-6.4104,10.5129,5.8977,-8.4617,0.25659,-0.76929,1.282,-0.25659,6.4104,6.9231,9.4871,
-0.76929,-6.4104,3.8459,2.3079,15.6409,8.4617,-3.3333,-1.282,-2.3079,-4.3591,-0.25659,11.0256,0.25659,11.5383,
1.7949,-1.7949,6.4102,6.4102,13.0771,13.0771,-3.8462,-1.7949,-5.8975,-2.8203,-2.3076,19.7437,-2.3076,14.1025,
-7.9485,-7.9485,2.8206,-7.4358,6.4104,7.949,-8.4612,-3.8459,-4.8718,0.76929,-0.76929,9.4875,2.3079,10.0002,
-0.5127,-3.0771,11.2822,0,21.4104,15.8975,-10.769,-7.1797,-11.7949,-9.231,2.0513,3.0767,0,5.6411,
1.0259,0,10.2563,7.6924,28.7183,22.564,-12.3076,-9.7437,-15.3843,-14.3589,-7.1792,0,-11.7949,3.5898,
-4.1025,-1.0259,4.6152,0,13.7183,15.8975,-3.0771,4.1025,-0.38428,0.64111,-2.0513,-0.5127,-3.0771,8.2051,
-6.1538,0.51318,5.1284,-4.6152,0,8.7183,-4.1025,4.1025,-3.0767,3.5898,-3.0767,-1.5381,0,7.1797,
-1.7949,4.8721,10.5132,5.3848,15,20.2563,-5.8975,-6.4102,-14.1025,-11.4102,-10.5127,1.7949,-8.9741,3.3335,
-1.7949,3.3335,4.3589,1.7949,18.7178,24.8716,-2.3076,-2.8203,-11.0259,-11.0259,-9.4873,2.8203,-12.0513,2.3076,
-4.3591,0.76929,1.282,-5.3845,6.9231,10.0002,-1.282,-0.76929,-6.4104,1.282,-0.76929,3.3333,-13.0769,1.282,
-6.6667,0.51294,9.7434,2.5642,21.9231,9.2307,-6.1541,-11.7947,-14.3591,-6.6667,-0.51294,8.2053,-17.4358,2.5642,
-7.1797,2.564,10.769,7.1792,22.564,19.4873,-6.6665,-3.5898,-13.8462,-10.2563,-2.564,13.3335,-15.3848,8.7178,
-7.6921,0.51294,0.51294,-4.6155,7.564,9.7434,-0.51294,5.6409,0.51294,-1.0256,-0.51294,6.1541,-12.8206,7.6921,
-6.1538,0.5127,1.0254,-5.1284,-7.1797,4.6152,-0.5127,-2.564,4.6152,2.564,-1.0259,6.6665,-16.9233,6.1538,
-0.5127,0.5127,7.1792,6.6665,4.6152,14.3589,-2.5645,-3.0771,-2.5645,-1.5386,-1.5386,17.9487,-14.3589,8.2051,
0,-3.5898,2.0513,6.1538,0,14.3589,-3.5898,1.0259,-7.6924,-3.5898,-5.1284,11.2822,-12.8203,3.0771,
0.25635,-0.25635,0.25635,10.5132,-0.76904,11.5386,-7.9487,3.3335,-7.4355,-2.8203,-10,3.8462,-14.1025,6.4106,
-2.3076,-0.25635,3.8462,16.1538,-6.4102,7.9487,-4.8716,5.3848,-0.25635,0.25635,-4.3589,13.0771,-12.0513,13.5898,
-5.8977,-4.8718,5.3845,9.9998,-10.5129,4.8718,-0.25659,-1.282,-1.7952,0.25659,3.8459,20.2566,-13.5896,10.5129,
-3.3335,-5.8975,1.7949,6.4102,0.25635,12.564,-0.25635,-3.3335,-6.4102,-4.8716,2.3076,13.5898,-14.1025,8.4614,
-7.6924,-8.7178,-10.2563,4.6152,-14.7437,20.5127,-1.5386,4.6152,0.5127,-0.5127,1.0259,8.7183,-11.2817,11.7949,
-16.4104,-9.7434,-10.2566,4.1028,-29.7437,23.5896,-6.1536,1.0256,-1.0256,5.1282,1.5383,7.1794,-11.7947,13.3333,
-11.7944,-5.6406,3.5898,9.7437,-33.8457,31.7949,-4.1025,0,-5.1279,4.103,0,6.667,-10.2563,15.8975,
-9.2305,-3.0767,4.6157,9.7437,-18.8457,32.8208,-2.0513,12.3076,-4.1025,2.0513,-3.0767,7.1797,-9.2305,17.9487,
-12.8206,-4.6155,1.0256,7.1794,-26.1541,28.718,-4.1028,12.8206,-1.0256,5.1282,-3.0769,6.6667,-11.7952,15.8972,
-8.9744,-5.3845,5.8977,10.5129,-22.3079,27.949,-5.8972,2.3079,-1.7947,2.3079,-3.3333,1.7947,-7.4358,12.0515,
-5.8972,-0.76929,10.0002,17.1794,-10.5129,28.4617,-6.4104,4.3591,-3.3333,0.25659,-3.8459,3.3333,-0.25659,12.5642,
-12.8203,-6.1538,4.6152,13.8462,-13.8462,27.1797,-7.1797,4.1025,-3.0771,3.0771,-3.5898,11.7949,-4.6152,13.8462,
-10.7693,-9.2307,1.0256,13.8459,-13.8464,30.2561,-5.1282,4.1023,-3.0769,6.1536,-1.0256,14.3586,-5.1282,20.5125,
-5.6409,-5.1282,-3.0769,16.4104,-9.2307,36.4104,-1.0256,10.7693,-1.5383,8.718,1.0256,9.2312,-1.0256,25.1282,
-13.8462,-15.3848,-11.2822,4.6152,-14.8721,31.2817,-2.5645,1.5381,0,3.5898,0,1.5381,-7.1797,16.9229,
-12.564,-19.7437,-5.8975,1.7949,-8.9741,26.4106,-1.7949,-2.3076,3.3335,3.8462,1.7949,1.7949,-5.8975,13.5898,
-10.2563,-17.9487,-8.2051,2.564,-7.6924,17.9487,0.5127,0,3.0771,9.7437,0,-2.0513,-3.5898,15.3848,
-11.5381,-18.2051,-11.5381,2.8208,-6.4102,19.231,0.25635,-1.2817,3.3335,6.9233,-0.25635,4.3589,-7.9487,19.7437,
-3.8462,-13.0771,-1.7949,8.4614,8.5898,34.1025,-2.3076,0.25635,-0.25635,-1.2822,5.3848,19.3589,-7.9487,20.2563,
-5.8975,-16.1538,-6.4102,1.2822,-2.3076,26.4102,-1.2822,1.2822,-2.8203,1.7949,6.9233,6.9233,-5.8975,14.6152,
-11.2822,-18.4614,-12.3076,-6.1538,-17.3076,16.9229,3.5898,4.1025,3.5898,14.8716,4.1025,-5.6411,-3.5898,18.4614,
-3.0769,-17.949,-4.6155,-0.51294,-17.949,21.5383,-1.5383,3.0769,3.5896,11.282,0.51294,2.051,-5.1282,18.4617,
2.564,-18.4614,-4.6152,3.5898,-9.7437,16.9229,-7.1797,3.0771,-2.564,2.564,-3.0771,4.1025,-11.7949,15.3848,
1.0259,-17.436,-8.2051,4.6152,-7.6924,12.8203,-4.1025,6.6665,-6.6665,1.5386,-1.0259,3.0771,-14.3589,16.9229,
1.0254,-16.4102,-5.6411,8.7178,0,24.6152,-4.6152,3.0767,-11.2822,-3.0771,0,10.2563,-15.3848,17.9487,
2.8203,-13.0771,-11.0259,5.8975,0.25635,33.5898,-7.436,6.4102,-8.9746,-0.25635,-4.8716,20.2563,-16.1538,22.3076,
0.25635,-15.1284,-19.231,-5.3848,-9.4873,27.9487,-0.25635,9.4873,0.76904,9.4873,-3.3335,16.6665,-11.0259,26.4102,
-0.76929,-17.6926,-17.1794,-3.3333,-4.8718,25.3845,2.3074,6.4099,-0.76929,6.9231,0.76929,6.9231,-8.9744,22.8206,
2.3079,-13.0769,-4.8718,4.3591,5.3845,30.5129,-8.4617,7.9485,-12.5642,-2.3079,-4.8718,8.4617,-14.6155,18.2053,
0.25635,-10,0.25635,-0.25635,-3.333,26.9233,-2.8203,15.1284,-2.8203,4.3594,-0.76904,11.5386,-8.4614,20.7695,
-10.5129,-19.7434,-14.7437,-11.0256,-11.0256,11.9233,4.8718,4.8718,0.76929,7.4358,2.3079,-0.76929,-6.4099,20.2566,
-9.2307,-22.0515,-18.4617,-4.1028,3.5896,10.7693,1.5383,-1.5383,-6.1541,3.0769,4.1028,4.6155,-8.2053,21.0256,
