"AF3","AF4","F3","F4","F7","F8","FC5","FC6","O1","O2","P7","P8","T7","T8",
-17.1792,-1.2822,34.1025,6.4102,-68.4614,17.6924,145.8975,104.3589,-4.3589,-7.9487,5.3848,1.2822,-10.5127,-10.5127,
-18.4617,-0.51294,38.4617,2.5642,-55.3845,5.6409,143.0769,112.8206,-7.1794,-7.1794,0.51294,1.5383,-9.2307,-17.4358,
-10.2563,-4.1025,45.1284,6.667,-56.4102,10.7695,158.0769,121.5386,-5.1279,-3.5898,4.1025,3.5898,-11.2817,-14.3589,
-13.333,-7.1792,37.436,2.0513,-61.0254,21.5386,162.5645,117.9487,-5.1279,-2.0513,9.231,2.5645,-11.2817,-12.3076,
-16.6667,-4.3591,35.1282,0.76929,-60.2563,18.718,147.9485,123.8459,-5.8972,-0.25659,8.9744,0.25659,-5.8972,-17.1794,
-14.3589,-3.0767,32.8208,0,-45.2563,17.436,162.9485,138.8459,-7.1792,0,2.0513,1.5386,-3.0767,-16.9229,
-15.1282,0.76929,27.949,-0.76929,-30.2563,23.3333,177.9485,147.4358,-6.9231,1.282,-3.3333,4.8718,-4.3586,-14.6155,
-12.3076,1.0259,31.7949,-0.5127,-28.7178,25.6411,192.9485,141.5386,-7.1792,0.5127,-4.6152,3.5898,-7.1792,-17.436,
-8.4614,-1.2822,37.6924,-3.8462,-40.769,27.436,207.9485,149.4873,-4.8716,1.2822,1.2822,6.4102,-8.4614,-16.1538,
-17.1794,-0.25659,24.8718,-10.5129,-52.051,33.5896,222.9485,162.8206,-14.1023,1.7947,0.25659,8.4617,-13.0769,-20.7693,
-18.9744,4.1028,16.4104,-12.3074,-39.9998,40.5129,237.9485,177.4358,-17.4358,1.0256,-1.0256,4.6155,-8.718,-22.051,
-5.6409,7.6921,30.7693,-8.2053,-28.2053,42.5642,252.9485,187.6921,-9.2307,-1.5383,5.1282,1.5383,-6.6667,-18.4617,
0,11.7949,34.8721,-8.7178,-40,39.4873,267.9485,182.5645,-15.3843,-7.1792,0.5127,0,-15.8975,-27.1792,
2.0513,17.4355,37.4355,-10.2563,-32.8208,42.0513,282.9485,182.0513,-14.8721,-6.1538,-2.0513,8.2051,-7.1797,-28.2051,
0.51294,13.3333,34.3591,-15.8972,-17.9485,33.8464,297.9485,183.5896,-12.3079,-8.2053,-0.51294,12.3079,-5.1282,-24.6155,
-3.5898,10.2563,22.564,-21.0259,-32.8208,20.5127,312.9485,185.6411,-14.3589,-8.7178,3.5898,6.6665,-16.4102,-29.7437,
-2.0515,14.3591,18.9744,-18.4617,-31.282,26.6667,327.9485,186.1536,-12.3079,-1.5383,6.1536,1.5383,-7.6921,-31.282,
-2.0513,17.436,16.9229,-20.5127,-16.282,39.4873,342.9485,175.8975,-17.436,-4.1025,-1.5386,1.5386,1.5386,-34.3589,
-4.1025,14.3589,14.8716,-28.2051,-1.282,31.2822,357.9485,169.231,-22.564,-9.231,-2.0513,3.0771,-2.0513,-38.9741,
0,10.769,19.4868,-27.1797,-8.7183,21.5386,372.8203,177.4355,-20,-6.667,1.0254,0,-5.1284,-37.436,
6.1541,19.4871,27.6926,-23.0769,-18.4617,24.6155,357.949,185.6409,-14.8718,-2.5642,1.5383,-2.051,-1.5383,-33.8459,
-0.25635,21.2817,18.7178,-27.436,-18.2051,20.2563,372.949,173.0767,-17.1797,-6.4102,0.25635,-5.3848,0.25635,-37.1797,
2.564,16.4102,13.8462,-24.1025,-11.2817,25.6411,387.949,167.1797,-17.436,-6.1538,0.5127,-0.5127,-1.0254,-36.4102,
11.7947,12.8206,21.0256,-28.718,-25.1282,32.8206,402.949,173.3333,-19.4875,-5.1282,-4.6155,4.6155,-8.718,-37.949,
13.8462,16.9229,17.9487,-31.7949,-21.0254,28.2051,402.564,178.4614,-24.1025,-5.6411,-4.6152,2.564,-2.564,-43.0771,
7.9485,13.0769,7.9485,-35.1282,-19.2307,23.3333,402.8206,171.0256,-28.4617,-10.0002,-10.0002,-3.3333,3.3333,-43.3333,
21.0256,13.3333,22.9485,-33.3333,-34.2307,27.1794,403.5896,169.2307,-22.0515,-5.6409,-9.2307,1.5383,-1.5383,-30.7693,
28.2053,24.1028,26.1541,-27.6921,-49.2307,12.1794,408.2053,173.8459,-24.1028,-6.6667,-2.0515,2.0515,-10.2566,-33.3333,
14.3591,23.0769,11.1541,-31.282,-34.2307,0.51294,413.8459,176.9231,-26.6667,-6.6667,4.6155,-0.51294,-4.6155,-45.6409,
5.3845,8.0769,1.7947,-40.2566,-19.2307,15.5129,411.5383,168.9744,-24.8718,-2.8206,-1.7952,0.76929,-0.76929,-47.949,
20.3845,15.385,7.6926,-40.5125,-34.2307,14.8718,420.0002,157.949,-29.7434,-3.0769,-10.2561,3.0769,-3.5896,-44.615,
29.9998,28.4617,11.0256,-41.7952,-49.2307,13.5896,431.0256,160.7693,-34.1028,-9.4871,-8.9744,2.3079,-2.3079,-44.3591,
14.9998,13.4617,0.25635,-47.436,-34.2307,28.5896,419.231,172.0513,-33.0771,-11.5386,-11.5386,1.2822,-0.25635,-46.4102,
0.25635,-0.25635,-6.4102,-46.9229,-19.2307,43.5896,434.231,179.231,-31.0254,-2.3076,-9.4873,6.4102,7.436,-40.2563,
15.2563,14.7437,5.385,-41.282,-9.4871,58.5896,449.231,179.7439,-32.5637,-5.3845,-10.5125,-0.76929,0.76929,-41.282,
30.2563,29.7437,20.385,-33.5898,-24.4871,73.5896,451.0254,190,-24.3589,-1.7949,-4.8721,1.7949,-6.9233,-35.6411,
28.4614,14.7437,24.3589,-43.8462,-39.4871,88.5896,446.9229,183.3335,-27.436,-2.8203,-5.8975,2.8203,-6.4102,-40.769,
18.4617,1.5383,11.282,-49.2307,-38.9744,103.0769,461.9229,184.1028,-36.4104,-4.1028,-12.8206,0.51294,-0.51294,-50.7693,
20.5127,10.769,6.1538,-47.6924,-53.9744,110.2563,451.7949,199.1028,-28.7183,0,-13.8462,0,-0.5127,-49.231,
19.4873,9.7437,9.7437,-43.5894,-38.9744,125.2563,436.7949,212.3081,-17.9487,-2.0513,-5.6406,2.0513,-3.5894,-46.1538,
29.4871,12.0515,16.1541,-38.718,-23.9744,127.9485,451.7949,209.9998,-19.7434,-11.5383,-0.76929,0.76929,-3.8459,-47.4358,
40.2563,17.1797,16.1538,-42.8203,-35.1279,142.9485,466.7949,205.8975,-23.3335,-11.0254,-5.3848,-0.76904,0.76904,-45.8975,
28.4614,12.0513,11.5386,-46.4102,-50.1279,155.6411,481.7949,211.0254,-27.9487,-5.8975,-12.564,1.7949,-1.7949,-46.9233,
19.7437,15.6411,13.0767,-43.8462,-36.1538,145.3848,480.2563,226.0254,-29.4873,-6.4102,-11.0259,3.3335,-3.3335,-48.4614,
25.6414,19.4875,5.1282,-52.8206,-21.1538,145.1282,475.385,233.3337,-37.9485,-19.4871,-16.4099,-8.2048,-5.1282,-53.8459,
30.5129,20.7693,-1.7947,-54.1028,-6.1538,160.1282,490.385,248.3337,-36.6667,-16.6667,-17.1794,-3.3333,1.7947,-50.5129,
25.1282,8.718,-1.5383,-55.8972,7.1794,175.1282,505.385,263.3337,-34.3591,-11.7947,-17.9485,1.0256,-1.0256,-53.8459,
38.9744,22.0515,13.4617,-42.5642,-7.8206,185.6409,520.385,278.3337,-29.7434,-8.2053,-11.282,-1.5383,1.5383,-47.6921,
32.5642,25.8977,7.949,-47.9485,3.3333,170.6409,535.385,279.7439,-40.2561,-20.2561,-19.2307,-15.1282,-3.3333,-53.0769,
29.4873,14.1025,6.4102,-51.5386,-1.7949,168.9741,550.385,289.4873,-33.5898,-11.0259,-14.6152,-2.8208,1.7949,-46.4102,
28.9744,7.4358,2.8206,-52.0515,-16.7949,183.9741,563.3333,289.4871,-33.5896,-11.5383,-15.6409,0.76929,-0.76929,-47.949,
27.6921,12.3074,7.1794,-50.7693,-9.2307,195.3845,548.3333,303.0769,-32.3079,-15.8977,-13.8464,-5.1282,5.1282,-48.718,
25.8972,6.9231,6.9231,-50.5129,-6.9231,181.7947,555.1282,318.0769,-30.0002,-14.1028,-13.5896,-9.4871,18.2053,-53.5896,
34.1025,18.7178,2.3076,-43.8462,-5.3848,177.6924,570.1282,322.8203,-27.9487,-4.8721,-11.5386,-2.3076,22.3076,-56.6665,
37.1794,32.5642,11.5383,-46.9231,-0.76929,162.6924,555.1282,324.8718,-33.5896,-6.4099,-17.1794,-4.3586,7.3076,-59.2307,
37.436,25.1279,25.1279,-48.7183,0.5127,151.2817,540.1282,339.8718,-33.3335,-5.6411,-16.9233,-1.0259,-0.5127,-51.7949,
27.4358,10.1279,19.7434,-54.1028,-14.4873,166.2817,555.1282,354.8718,-33.5896,-3.8459,-16.6667,2.8206,12.051,-50.0002,
23.0767,-0.5127,14.3589,-53.8462,-17.9487,168.7178,570.1282,340.5127,-38.4614,-3.0771,-20,0.5127,9.231,-61.5386,
28.4614,14.4873,16.1538,-54.1025,-2.9487,153.7178,555.1282,355.5127,-43.3335,-6.9229,-24.3589,-4.8716,0.76904,-68.9741,
24.6155,5.6409,13.3333,-60.0002,-7.1794,138.7178,554.3591,370.5127,-40.5129,-11.282,-24.6155,-5.1282,5.1282,-59.4871,
26.4102,-1.7949,5.3848,-58.7178,2.3076,153.7178,569.3591,385.5127,-43.8462,-15.6411,-25.3848,-5.8975,1.7949,-55.6411,
34.3589,10.769,10.2563,-56.9233,12.8203,165.1279,557.9487,376.4102,-51.7949,-21.0259,-32.8208,-11.2822,-10.2563,-62.5645,
33.3335,10.2563,19.4873,-56.9229,4.6152,150.1279,556.9233,391.4102,-55.3848,-22.0513,-38.9741,-13.8462,-4.6152,-60.5127,
35.8975,0.5127,23.5898,-51.2822,5.1279,135.1279,567.1792,406.4102,-51.2822,-19.4873,-35.3848,-13.3335,-0.51269,-49.7437,
36.6667,9.4871,28.4617,-48.4617,4.3591,143.3333,566.4104,421.4102,-42.8206,-16.1541,-30.0002,-13.0769,-4.3591,-50.0002,
32.564,24.4871,40.2563,-41.7949,-10.6409,158.3333,579.2305,436.4102,-32.0513,-3.8462,-25.8975,-5.3848,3.8462,-48.9746,
22.8208,19.231,34.1025,-44.8716,-10.5127,155.6411,590,451.4102,-35.1279,-8.4614,-25.8975,-7.9487,7.9487,-47.9487,
13.3335,7.1797,23.0771,-51.2822,4.4873,140.6411,575,453.3335,-47.1797,-23.4614,-33.8462,-20.5127,-7.0513,-58.9741,
14.3586,13.3333,35.8972,-42.0515,-1.5383,128.2048,560,468.3335,-42.0515,-21.5383,-30.2566,-5.5127,1.5383,-54.8718,
8.9741,-1.6667,20.8972,-53.0771,-2.3076,138.7178,571.5381,469.4868,-50,-13.0771,-35.1284,1.7949,7.9487,-54.1025,
23.9741,1.0256,14.3586,-53.3337,6.1536,123.7178,567.6921,454.4868,-49.2307,-17.949,-37.949,-7.1794,-1.0256,-55.385,
38.9741,16.0256,29.3586,-39.7434,-8.8464,108.7178,552.6921,469.4868,-34.2307,-12.5642,-23.8459,-0.25659,0.25659,-46.9231,
53.9741,3.0769,43.5896,-48.718,-23.8464,113.8459,563.0769,484.4868,-38.9744,-11.7952,-26.1541,-0.51294,0.51294,-47.6926,
38.9741,-11.9231,28.5896,-50.769,-8.8464,125.6411,578.0769,470.2563,-49.231,-12.8203,-33.8462,-4.6152,4.6152,-47.6924,
45.385,-6.4099,25.8977,-44.3586,6.1536,124.3591,563.0769,461.7952,-42.3074,-13.5896,-32.5637,-4.8718,4.8718,-47.4358,
60.385,8.5901,40.8977,-42.564,-8.8464,115.8975,548.0769,470.2563,-33.3335,-9.7437,-25.6411,-0.5127,0.5127,-43.5898,
55.3845,-5.1282,55.8977,-53.3333,6.1536,110.7693,563.0769,465.1282,-38.4617,-13.8459,-27.6921,-10.2566,5.1282,-46.6667,
47.436,-10,70.8977,-50.5127,21.1536,103.3335,573.0771,470,-38.7178,-20.2563,-25.3843,-20.2563,10,-51.5381,
62.436,5,85.8977,-35.5127,6.1536,100.2563,558.0771,485,-23.7178,-6.4102,-10.3843,-7.9487,6.4102,-40.769,
77.436,20,100.8977,-32.8203,-8.8464,98.9746,543.0771,470.769,-24.6152,-3.0767,-15.8975,-2.564,2.564,-36.4102,
62.5642,5,115.8977,-47.8203,6.1536,100.5129,543.5896,455.769,-39.6152,-18.0767,-30.8975,-17.564,-4.6155,-50.7693,
67.9487,17.6924,117.6924,-51.5381,21.1536,108.4619,534.6157,446.4102,-54.6152,-33.0767,-40.2563,-27.4355,-17.6924,-56.1538,
82.9487,32.6924,132.6924,-36.5381,6.1536,123.3333,528.9744,461.4102,-39.6152,-18.718,-25.2563,-12.4355,-3.3333,-41.1538,
73.0769,17.6924,123.3337,-45.3845,-2.8206,108.3333,523.3337,457.6926,-43.8459,-27.4358,-36.1536,-14.615,2.8206,-45.3845,
68.2051,6.1538,112.8208,-55.3843,12.1794,102.564,521.5386,442.6926,-58.8459,-36.4102,-49.2305,-22.564,-6.1538,-60.3845,
81.7949,18.2051,127.8208,-59.7437,23.3335,96.6665,506.5386,432.0513,-60.769,-32.564,-48.9741,-20.769,-18.2051,-61.7949,
76.9231,17.4358,133.8459,-49.7434,8.3335,81.6665,509.2307,433.3333,-47.6921,-29.2307,-34.8718,-17.4358,-7.6921,-48.718,
70.5129,2.4358,128.4617,-46.9231,23.3335,90.5129,512.0515,435.1282,-42.3079,-32.051,-32.5642,-17.6921,2.3079,-48.4617,
79.2305,-7.9487,128.4614,-45.8975,38.3335,105.5129,523.333,432.564,-40.2563,-24.3594,-36.667,-8.9746,7.9487,-42.3081,
81.0254,7.0513,129.7437,-49.7437,36.4102,90.5129,511.7949,424.1025,-45.6411,-31.7949,-48.2051,-23.9746,-7.0513,-48.7183,
92.0515,22.0513,144.7437,-36.6667,21.4102,75.5129,496.7949,435.6409,-39.2307,-28.9744,-38.2053,-30.5129,-15.1282,-51.5383,
82.3076,9.4873,133.5898,-50,36.4102,77.6924,481.7949,421.7949,-44.8716,-30.5127,-43.3335,-23.3335,-9.4873,-54.6152,
97.3076,-5.5127,135.8972,-46.6667,51.4102,92.6924,479.9998,411.7947,-31.282,-17.949,-33.8464,-8.3335,5.5127,-39.6152,
112.3076,9.4873,147.6924,-32.8203,36.4102,78.9746,472.8203,406.6665,-30.2563,-17.9487,-31.7949,-14.3589,-9.4873,-37.9487,
127.3076,20.0002,145.1282,-35.3845,21.4102,63.9746,473.8464,412.3079,-36.9231,-18.4617,-36.4104,-16.4104,-13.3333,-46.6667,
116.9231,5.0002,130.2566,-47.1794,36.4102,58.4617,473.8459,405.6409,-39.4871,-25.6409,-40.5129,-15.8972,1.6667,-45.6409,
126.4099,-6.9231,135.1282,-39.2312,28.4612,73.4617,460.2561,396.1536,-36.6667,-29.4875,-36.1541,-14.1028,6.9231,-36.1541,
141.4099,8.0769,150.1282,-35.6411,13.4612,73.5898,445.2561,392.564,-38.2051,-29.4873,-33.5898,-18.7183,-6.4102,-38.2051,
136.1536,12.5642,149.4871,-44.3591,28.4612,71.5383,430.2561,380.2561,-45.8977,-33.5896,-42.3079,-23.3333,-12.5642,-51.5383,
125.6411,8.2051,146.6665,-41.5386,43.4612,56.5383,426.6665,372.3076,-41.5386,-30.2563,-39.4873,-14.3589,-8.2051,-48.2051,
124.6155,14.8718,147.6921,-39.4871,28.4612,41.5383,441.6665,370.2566,-42.5642,-32.3079,-43.0769,-23.5896,-14.8718,-45.1282,
123.0769,9.2307,147.6921,-42.0515,22.5642,39.9998,426.6665,362.5642,-42.5642,-28.2053,-40.5129,-27.1794,-9.2307,-43.5896,
123.3335,-5.7693,148.9746,-37.6924,37.5642,54.9998,411.6665,358.7183,-28.9741,-15.1279,-25.5129,-12.1794,5.7693,-35.1279,
133.5898,-3.8462,155.6411,-31.0254,36.667,46.9233,426.6665,368.9746,-30,-16.6665,-24.3589,-10.5127,3.8462,-37.6924,
144.3586,11.1538,163.8459,-34.6155,21.667,31.9233,411.6665,364.8713,-37.1799,-17.1799,-37.1799,-21.2825,-11.1538,-43.8464,
145.1284,22.564,164.6152,-33.8462,6.667,46.9233,396.6665,349.8713,-26.6665,-4.1025,-27.6924,-14.3589,-17.9487,-37.436,
141.2822,7.564,158.7183,-26.9229,5.3848,43.3335,411.6665,347.436,-22.8203,-3.8462,-23.8462,-13.0767,-12.0513,-34.6152,
134.6155,14.6155,147.9485,-37.1794,20.3848,28.3335,421.282,356.1536,-32.0515,-14.6155,-33.5901,-16.6667,-15.6414,-38.2053,
136.9229,17.9487,146.6665,-45.6411,28.7178,43.3335,406.282,341.1536,-37.9487,-20.5132,-38.4614,-17.9487,-24.1025,-40.5132,
151.9229,19.7434,161.6665,-30.6411,13.7178,58.3335,391.282,342.3074,-22.9487,-5.5132,-23.4614,-2.9487,-9.1025,-25.5132,
140.2566,4.8718,146.9231,-28.4617,-1.2822,43.3335,379.7439,342.8206,-21.282,-3.3333,-26.9231,3.3333,-11.0256,-33.5896,
125.2566,1.7949,131.9231,-41.7949,13.7178,44.8716,394.7439,341.7949,-28.9746,-8.4614,-29.4873,-1.7949,-16.6665,-41.2822,
126.1541,10.2566,133.3333,-38.4617,10.7693,34.8718,381.5383,326.7949,-26.1541,-10.2566,-24.1028,-11.282,-14.8718,-38.4617,
141.1541,18.9741,148.3333,-24.6157,-1.0259,19.8718,366.5383,317.4355,-15.8975,0,-16.4102,-1.0259,0,-29.7437,
131.5383,3.9741,140.2561,-30.0002,8.9744,34.8718,364.8718,331.0256,-18.2053,-2.3079,-19.2307,1.282,-1.282,-34.6155,
125.1282,-9.7434,143.0769,-30.7693,23.9744,49.8718,371.7947,339.4871,-15.3845,0.51294,-13.8464,-0.51294,-0.51294,-29.2307,
129.4873,-0.25635,143.3335,-32.0513,32.564,43.8462,372.0513,324.4871,-18.2051,0.25635,-17.6924,-1.7949,-4.8716,-32.564,
139.2307,0.25659,131.5383,-40.2566,19.7434,33.5896,371.0256,309.4871,-22.8206,-5.3845,-25.8972,-0.25659,-6.4104,-40.7693,
149.4873,0.25635,135.1284,-37.6924,4.7434,48.5896,358.7178,301.7949,-23.8462,-5.8975,-23.8462,-0.25635,-5.8975,-39.7437,
151.2817,0.5127,146.1538,-31.2822,-3.0771,33.5896,344.1025,306.1538,-14.3589,4.1025,-14.3589,-1.0259,-0.51269,-31.2822,
153.8459,-11.7952,144.1023,-35.385,-18.0771,18.5896,342.051,307.6921,-11.7952,4.1023,-14.8718,-1.0256,1.0256,-28.718,
163.3333,-0.76929,141.7947,-34.1028,-18.718,14.6155,339.7434,302.3074,-19.2307,0.76929,-19.7439,1.282,-3.3333,-31.5388,
152.3079,5.1282,139.4871,-37.949,-7.6921,13.8459,324.7434,293.3333,-23.5896,2.5642,-22.5642,-2.5642,-7.6921,-37.949,
149.4873,-2.3076,144.8721,-31.0254,-20.2563,10.5127,312.0513,292.0513,-13.5898,5.8975,-14.1025,-0.25635,0.25635,-30.5127,
155.8972,0.51294,145.1282,-27.1794,-35.2563,15.8972,308.718,279.9998,-23.0769,-0.51294,-18.9744,1.5383,-1.5383,-30.7693,
148.9744,7.949,141.7947,-34.1023,-31.5383,14.1028,311.0256,268.4617,-31.0256,-0.76929,-26.4104,0.76929,-9.4871,-38.718,
141.5386,1.0254,145.6411,-35.3848,-46.5383,3.0767,296.0256,266.6665,-23.0771,0.5127,-22.0513,-0.5127,-14.8721,-35.8975,
155.6409,-3.8459,156.6667,-28.9744,-61.5383,13.0769,281.0256,264.8718,-14.1023,3.3333,-9.9998,7.949,-3.3333,-22.8206,
147.436,-11.0259,141.7949,-31.5386,-46.5383,13.0771,266.0256,249.8718,-26.9229,-1.2822,-20.2563,1.2822,2.8203,-28.9746,
132.8203,-16.9229,134.8721,-26.6665,-31.5383,11.7949,266.6665,236.4102,-27.1797,6.1538,-23.0767,-6.1538,6.6665,-29.231,
136.9233,-15.8975,149.7437,-21.5386,-32.3076,7.1797,251.6665,233.3335,-12.8203,6.1538,-15.8975,-6.1538,7.1797,-22.564,
149.7434,-0.89746,153.8459,-15.8977,-30.7693,-4.1028,236.6665,229.7434,-7.6926,1.0256,-16.9231,-1.0256,9.7434,-21.5388,
148.4619,-4.3589,143.3335,-20.2563,-15.7693,3.8462,251.6665,222.3076,-15.1279,1.7949,-20.769,-1.7949,10,-22.3076,
148.9744,-19.3589,148.4617,-19.2307,-21.282,18.8462,256.6667,215.6409,-15.1282,5.8972,-14.1028,-5.8972,6.9231,-15.6409,
147.6924,-15.3848,149.7437,-16.4102,-36.282,10.7695,241.6667,205.6411,-12.8203,1.5386,-13.8462,-1.5386,1.5386,-13.8462,
148.2053,-16.4104,153.3333,-15.3845,-45.6409,-3.0769,226.6667,195.8972,-6.1541,3.0769,-8.718,3.5896,5.6409,-8.718,
155.3843,-17.9487,160,-7.1797,-51.2822,-2.0513,211.6667,188.2051,-5.1284,9.7437,-3.0771,2.0513,9.2305,-8.2051,
148.9746,-9.4868,147.436,-11.0254,-36.2822,-0.25635,203.3335,183.8462,-15.1279,4.3589,-14.1025,0.25635,0.25635,-18.7178,
140.2563,-11.0259,140.769,-16.667,-35.1284,4.3589,217.6924,190,-16.1538,-1.7949,-16.1538,2.8203,1.7949,-15.1284,
140.2561,-20.2566,143.8459,-14.6155,-50.1284,2.8206,202.6924,181.7947,-13.0769,-2.8206,-10.0002,4.3586,6.9231,-10.5129,
151.2822,-6.1538,150.2563,-11.7949,-46.1538,-8.7178,187.6924,166.7947,-11.2822,6.6665,-10.2563,9.231,6.1538,-12.8203,
153.8464,-5.6409,152.8206,-10.2566,-61.1538,-5.6409,179.4871,158.9744,-11.282,9.2307,-11.7947,6.6667,5.6409,-10.7693,
140,-20.6409,144.1025,-9.7437,-76.1538,5.1279,175.897,161.0254,-8.2056,0,-7.6924,0,7.6919,-6.1543,
140,-12.3076,143.5898,-2.0513,-61.1538,-6.6665,160.897,153.3335,-2.0513,2.0513,-3.0767,3.5898,5.6411,-5.1279,
150.5132,-5.8975,150.5132,2.3076,-62.3076,-5.3843,147.9487,148.4619,-3.333,10.5132,-8.9741,7.9487,-2.3076,-5.3843,
147.9487,-16.6665,148.9746,-5.3843,-77.3076,9.6157,138.7183,153.0771,-4.3589,9.4873,-17.1792,3.8462,-6.4102,-3.8462,
142.0515,-2.051,145.1282,-1.0256,-92.3076,3.5901,125.1282,152.3079,-3.0769,6.6667,-15.8972,1.0256,-7.6921,-4.1023,
137.6924,-0.25635,142.8203,1.7949,-77.3076,-11.4099,113.5898,145.3848,-6.4102,7.9487,-8.4614,-1.2822,-9.4873,0.25635,
138.9741,-15.2563,142.0513,1.5386,-76.4104,-1.5386,124.1025,146.1538,-6.1538,10.769,-7.6924,-2.564,-6.6665,6.1538,
147.949,-0.76929,147.949,14.1028,-91.4104,-10.5129,130.0002,133.5896,-1.282,14.1028,-12.051,-7.9485,-6.4104,0.76929,
137.6926,14.2307,148.4617,6.9231,-106.4104,-25.5129,115.0002,118.5896,-6.9231,7.949,-14.6155,-17.6921,-13.5896,-12.051,
130.7695,2.0513,148.7183,4.6157,-91.4104,-12.8203,110.7695,125.1284,-3.0767,10.7695,-4.6152,-3.0767,-2.564,-2.0513,
131.7952,-12.9487,145.1282,12.8206,-95.8972,-22.5642,114.3591,137.949,-4.1023,7.6926,-11.282,-1.0256,-6.1536,1.0256,
138.2053,-27.9487,154.1028,17.6921,-110.8972,-16.1541,115.6409,122.949,-2.8206,5.8977,-13.5896,-6.9231,-15.1282,2.8206,
138.9744,-13.3333,147.6921,14.3586,-117.436,-11.7952,122.5642,107.949,-2.5642,4.1023,-6.1541,-2.5642,-12.3079,2.5642,
136.6667,1.6667,132.6921,8.9744,-102.436,-26.7952,121.7947,110.5125,-2.8206,-0.76929,-6.9231,-2.8206,0.76929,-3.8464,
127.9487,-13.3333,135.1284,7.436,-95.6409,-41.7952,106.9233,118.2051,-0.25635,0.25635,-12.564,-12.0513,4.8721,-1.7949,
114.6155,-28.3333,143.3333,9.4871,-80.6409,-26.7952,103.3333,119.7434,-0.76929,0.76929,-13.0769,-11.5383,-10.1279,5.3845,
121.5383,-36.4104,141.0256,10.7693,-90.7693,-28.718,118.3333,117.9485,-2.0515,1.0256,-10.2566,-1.0256,-21.5383,3.5896,
132.8203,-21.4104,136.9229,14.3589,-105.7693,-37.436,117.9482,105.1279,-1.0259,5.6406,-9.231,0,-6.5383,0,
125.8972,-24.3591,134.615,11.5383,-91.0259,-42.3079,124.8718,106.4099,-1.7952,0.76929,-8.9744,-7.4363,8.4617,-0.76929,
123.8462,-15.1284,136.6665,12.0513,-76.0259,-55.1284,136.1538,121.4099,1.7949,-5.3848,-1.7949,-5.3848,6.9229,-2.3076,
130,-7.9487,139.2305,13.0767,-68.9744,-51.0256,138.7178,132.564,9.4873,2.3076,-2.3076,-2.3076,-7.436,-4.3589,
134.3591,-15.8972,139.9998,12.3079,-53.9744,-44.1025,130.7693,124.1028,7.1794,4.6155,-10.2566,-4.6155,-13.3333,-5.1282,
146.1538,-5.1279,150.2563,22.564,-55.8975,-34.8718,118.4614,136.9233,-0.5127,-4.1025,-5.6411,0.5127,-5.1279,3.0771,
141.7947,-2.3079,147.4358,17.1794,-70.8975,-26.9231,133.4614,143.8459,-2.3079,-10.0002,-4.8718,0.76929,-0.76929,6.4099,
135.6411,-9.4873,136.6665,15.1284,-55.8975,-41.9231,148.4614,129.4873,7.436,-1.2822,-7.9487,-0.76904,-3.3335,0.76904,
138.9744,-9.2307,137.9485,21.5383,-40.8975,-53.3333,146.1541,122.5642,5.1282,-0.51294,-6.6667,-1.5383,-1.0256,0.51294,
133.0769,-14.1028,146.4104,20.7693,-41.7949,-38.3333,148.9744,137.5642,-5.3845,-9.4871,-4.3591,-5.3845,4.3591,9.9998,
126.1538,-17.436,142.564,23.0771,-45.6411,-37.9487,163.9744,144.6152,-7.6924,-11.7949,-11.2822,-6.1538,6.1538,12.3076,
127.1794,-12.8206,138.4617,26.1536,-34.3591,-41.0256,148.9744,129.6152,-5.1282,-8.2053,-14.3591,-10.7693,7.1794,5.1282,
126.4104,-25.8975,143.3333,25.8977,-49.3591,-35.1282,133.9744,120.7693,-0.76929,-5.8972,-8.4617,-21.7949,0.76929,3.8464,
119.4875,-40.8975,137.4363,24.6155,-64.3591,-50.1282,139.4875,128.718,1.0256,-6.1536,-7.6921,-21.0254,-1.0256,2.5642,
121.2822,-45.3848,140.2563,22.8203,-72.0513,-65.1282,128.9741,121.2822,6.9229,-2.3076,-7.436,-13.0771,1.2822,-1.2822,
125.3843,-45.3848,145.3843,22.3076,-66.4104,-55.1284,113.9741,108.9741,13.0767,2.3076,-4.3589,-10,-3.3335,-2.3076,
121.5386,-38.9744,131.7949,18.4614,-51.4104,-55.8975,121.0254,110.769,10.769,-0.5127,-4.1025,-7.1797,0.5127,-6.1538,
115.1284,-34.6155,128.9746,14.6152,-36.4104,-70.8975,130.5127,114.1025,5.3848,-7.436,-5.3848,-5.8975,8.4614,-7.436,
109.4873,-44.8718,135.6411,16.1538,-30,-71.0256,115.5127,112.0513,8.9741,-8.9746,-3.8462,-7.436,3.8462,-5.3848,
110,-47.949,134.6152,16.6665,-45,-56.0256,103.8462,103.333,12.564,-4.8721,-0.25635,-1.2822,-4.3589,0.25635,
114.3589,-35.3845,132.8208,18.4614,-30.2563,-50.7693,118.8462,94.8721,-2.436,-10.769,-3.0767,2.564,-4.6152,7.1797,
115.8972,-27.1794,135.8972,21.5383,-15.2563,-55.3848,107.1794,102.5642,-7.1794,-12.3079,-1.5383,-3.0769,1.5383,14.8718,
114.6155,-24.8718,137.6921,22.3074,-27.949,-57.1797,92.1794,102.8206,0.76929,-6.4104,-0.76929,-4.8718,-4.8718,8.4612,
117.6921,-21.7947,137.1794,24.8718,-28.9744,-63.3333,86.9231,92.0515,-0.76929,-4.3591,-6.4104,2.3079,-16.6667,0.76929,
119.4871,-30.2563,136.9231,22.5642,-14.3591,-52.8206,78.9744,90.2566,-1.5383,-3.0769,-2.5642,1.5383,-11.282,9.7434,
113.5896,-42.3076,133.0769,17.6921,-19.7434,-46.9231,63.9744,87.4358,-0.25659,-7.4358,0.25659,-13.4617,-7.4358,9.9998,
116.1541,-32.5642,133.5896,19.2307,-20.2566,-61.9231,49.4871,79.2307,0.76929,-5.3845,-0.76929,-12.5642,-11.0256,7.9485,
116.6667,-30.0002,131.0256,15.6409,-11.5388,-76.9231,63.3333,73.5896,2.8206,-5.3845,-2.8206,-5.8977,-16.1541,8.4612,
111.2822,-38.4614,125.1284,12.8208,-20,-74.3589,48.3333,70.2563,4.1025,-8.7178,-4.1025,-13.8462,-21.0254,5.1284,
113.5901,-33.0769,130.5129,15.1282,-35,-74.1025,33.3333,62.3079,4.3591,-10.5125,-3.3333,-20.2561,-19.2307,3.3333,
113.3335,-28.2051,127.6924,16.9233,-50,-77.9487,18.3333,65.6411,3.5898,-12.8203,-0.51269,-15.8975,-13.8462,4.1025,
114.1028,-32.564,122.3079,16.1541,-60.769,-62.9487,3.3333,68.4617,6.4104,-7.9485,8.4617,-6.4104,-11.5383,10.0002,
115.8975,-34.3589,124.6157,10.2568,-75.769,-56.9229,-11.6667,53.4617,4.6157,-8.2051,6.1538,-4.1025,-20.5127,4.1025,
115.6411,-23.8462,125.8975,16.1538,-73.5898,-67.9487,-26.6667,48.4614,2.8203,-7.9487,0.76904,-0.76904,-20.2563,3.3335,
111.0256,-26.9231,121.7947,18.2053,-66.9231,-57.1794,-41.6667,63.4614,0.76929,-5.8972,1.282,-0.76929,-14.6155,10.5129,
113.8462,-27.6924,124.6152,17.436,-64.6152,-42.1794,-56.6667,66.6665,-2.0513,-3.0767,5.1284,2.0513,-11.7949,14.8721,
115.6411,-21.7949,124.8716,19.7437,-66.4104,-57.1794,-71.6667,51.6665,-1.7949,-8.9746,2.8203,1.7949,-13.0771,10.5127,
117.6921,-19.7434,123.8459,24.8718,-65.8975,-72.1794,-80.7693,52.051,3.8459,-12.5642,2.3079,-2.3079,-10.0002,14.6155,
115.8972,-17.4358,123.5896,25.1282,-52.3076,-57.1794,-95.7693,46.1541,2.5642,-9.7434,4.1028,-2.5642,-10.2566,20.5129,
113.3333,-19.4871,121.5383,19.4871,-47.6924,-42.1794,-108.718,31.1541,3.0769,-9.7439,4.6155,-3.0769,-6.6667,17.4358,
113.333,-27.1797,114.8716,20,-50.7693,-50.7693,-93.718,38.9741,2.564,-15.3848,7.6924,-12.3076,-2.564,13.333,
113.0767,-15.1284,116.6665,23.8462,-36.1541,-35.7693,-92.5642,41.7949,2.3076,-7.9487,17.6924,-7.436,-2.3076,14.6152,
113.0769,-3.3333,121.7947,20.7693,-25.8975,-20.7693,-107.5642,26.7949,2.8206,-3.3333,16.1536,-2.8206,-3.8464,15.6409,
115.6411,-5.8975,116.6665,23.3335,-27.4358,-35.7693,-118.2051,25.8975,0.25635,-14.6152,5.3848,-10,-0.25635,17.6924,
111.7952,-6.1536,107.6926,20.0002,-14.8718,-40.5127,-107.6921,34.3591,-3.0769,-22.051,4.1028,-7.6921,3.0769,16.4104,
110.2561,-4.1028,115.3845,15.8972,-4.1028,-25.5127,-106.1541,28.2048,-1.5388,-15.385,9.7434,1.0256,-1.0256,16.9231,
119.4873,1.5386,122.0513,21.5386,-17.436,-18.4614,-121.1541,24.1025,-1.5386,-13.3335,7.6924,-4.1025,-9.7437,15.3848,
121.5386,8.2051,116.4102,21.0254,-31.7949,-33.4614,-136.1541,11.2817,-3.5898,-17.436,3.5898,-10.7695,-11.2822,11.7949,
116.1536,5.3845,107.4358,21.282,-19.2307,-43.3335,-123.3335,7.9485,-3.3333,-16.6667,2.8206,-3.3333,-2.8206,13.5896,
112.3076,-0.51269,106.6665,24.1025,-4.2307,-28.3335,-119.4873,22.9485,-4.1025,-18.9746,0.5127,1.0254,-2.0513,12.8203,
114.1025,5.8975,113.5898,24.3589,-15.1284,-26.9231,-131.0256,27.9487,-2.3076,-17.6924,0.76904,-0.76904,-5.3848,14.1025,
111.0254,8.4614,107.4355,22.8203,-22.3076,-41.9231,-121.7949,14.6152,-2.3076,-13.5898,2.3076,-3.3335,-2.8208,16.1538,
109.4871,2.8206,105.3845,15.1282,-7.3076,-32.5642,-124.3591,15.1282,-2.8206,-12.5642,6.4099,-4.3591,-3.8464,14.6155,
112.0513,0.76904,111.5386,15.6411,-3.3335,-17.5642,-139.3591,20.769,-2.3076,-10,8.4614,-0.76904,-2.8203,14.6152,
106.6667,-4.1028,102.051,19.4871,-18.3335,-31.7949,-141.0256,10.2561,-4.1028,-12.8206,3.0769,-1.0256,1.0256,15.3845,
107.1792,1.5386,101.0254,22.0513,-27.6924,-46.7949,-126.0256,8.7178,-1.5386,-14.8721,3.0767,-3.5898,-1.5386,15.3843,
114.3589,16.5386,111.7949,24.1025,-36.9231,-40,-133.8462,11.7949,-2.0513,-13.3335,2.0513,-9.231,-12.8208,11.2817,
109.4871,15.6409,109.9998,22.3079,-28.9744,-25,-141.282,19.7434,-0.25659,-10.0002,0.25659,-5.8977,-8.4617,13.0769,
105.1282,11.7947,102.0515,20.5129,-13.9744,-38.9744,-126.282,18.9744,-1.5383,-14.8718,-1.0256,1.0256,-6.1541,14.3591,
114.8718,7.6921,111.282,21.0256,-28.9744,-51.2822,-121.0256,3.9744,-3.5896,-13.8464,-2.5642,2.5642,-18.9744,11.7947,
111.7949,-2.564,117.9487,20.5127,-28.2053,-39.4873,-136.0256,8.7178,0,-0.5127,0,6.6665,-12.3076,13.3335,
96.7949,-4.1028,103.0769,17.4358,-13.2053,-50.2566,-121.0256,23.7178,-2.5642,-3.0769,-1.5383,1.5383,-2.5642,10.2561,
98.4617,1.0256,103.0769,18.4617,1.7947,-47.1794,-106.0256,29.7434,-3.0769,-14.3591,-1.0256,-4.1023,-5.6409,12.3079,
105.8972,0.76929,107.4358,22.3074,15.1282,-40.7693,-101.7949,17.1794,-0.76929,-14.6155,-1.7952,-1.282,-10.0002,11.0256,
100.5129,-0.51294,98.9744,17.949,8.2053,-55.7693,-116.7949,13.3333,-5.6409,-10.7693,-5.6409,0.51294,-11.282,1.5383,
101.7947,-1.282,105.8972,14.1023,1.282,-40.7693,-122.8206,28.3333,-6.4104,-10.0002,-1.282,1.7947,-5.3845,4.8718,
99.9998,-3.0769,109.2307,16.9231,6.1536,-25.7693,-107.8206,43.3333,-5.6409,-14.8718,0.51294,-0.51294,-2.5642,12.3079,
96.1538,0.25635,98.7183,21.2822,8.4614,-40.7693,-92.8206,43.3335,-2.3076,-14.1025,-0.25635,-3.333,-0.25635,11.0259,
102.8203,3.3335,100.769,23.3335,-1.2822,-53.5898,-79.2307,28.3335,-0.25635,-8.9746,1.7949,-3.3335,-0.76904,0.25635,
100.769,2.3076,101.7949,17.1792,13.7178,-38.5898,-85.8975,38.2051,-4.8721,-7.436,-1.7949,1.7949,-4.3589,-1.7949,
85.769,1.5383,86.7949,4.6155,22.051,-45.6411,-80.0002,53.2051,-10.7693,-13.3333,-11.7952,-1.0256,-7.6926,1.0256,
87.9487,2.3076,90.5127,11.0254,12.0513,-44.8718,-83.3335,45.8975,-4.8721,-9.4873,-3.8462,-2.3076,-2.3076,2.3076,
98.4614,2.0513,100.5127,12.8208,10.2563,-29.8718,-93.8462,35.3848,-2.564,-7.1792,2.0513,-2.0513,-7.6924,-3.0767,
96.1541,11.5383,90.0002,5.3845,16.1541,-43.8462,-92.564,50.3848,-4.8718,-9.9998,-2.8206,2.8206,-12.051,-3.3333,
91.7952,7.1794,75.0002,1.0256,16.4104,-30.2561,-77.564,61.0256,-7.6921,-13.8459,-1.0256,6.6667,-2.051,-1.5383,
91.5386,-6.4102,74.1025,8.4614,1.4104,-15.2561,-62.564,46.0256,-3.3335,-15.1284,3.3335,2.3076,-1.7949,-3.3335,
89.4868,5.8975,79.2305,22.3076,-8.4619,-24.8721,-77.564,44.3589,0.25635,-11.5386,-0.25635,1.2817,-8.9746,-2.8208,
81.7949,15.6406,73.5894,15.1279,6.5381,-39.8721,-92.564,59.3589,-7.9487,-10,-3.8462,1.7949,-1.7949,-2.3081,
82.8206,0.64063,71.5388,8.4617,21.5381,-24.8721,-77.564,61.282,-12.051,-11.5383,-0.76929,0.76929,5.385,-1.282,
82.051,-11.7947,68.718,12.8206,36.5381,-9.8721,-62.564,46.282,-10.7693,-13.3333,-1.5383,-1.0256,1.0256,-2.5642,
84.6155,3.2053,71.7947,14.3586,37.9485,-10.7693,-71.7949,61.282,-8.2053,-6.1541,-1.5388,-3.0769,1.0256,-1.0256,
92.0515,18.2053,76.6667,15.1282,47.4363,-25.7693,-62.3076,73.5901,-12.051,-4.3586,-1.282,-9.9998,-1.7947,1.282,
87.6924,8.7183,73.8462,12.8208,38.9746,-15.8975,-65.1282,68.2051,-6.6665,-6.6665,2.564,-13.3335,-3.0767,-2.564,
77.1794,-5.8972,64.3591,4.3591,23.9746,-14.6155,-80.1282,53.2051,2.3079,-7.4358,3.8464,-15.1282,-2.3079,-14.1023,
79.2305,-3.3335,63.3335,7.9487,19.2305,-23.8462,-81.2822,42.3076,1.2822,-5.8975,4.3589,-13.0771,-1.2822,-10,
79.4871,1.5383,66.1541,9.7434,34.2305,-17.4358,-66.2822,57.3076,-9.2307,-9.2307,0.51294,-7.1794,-0.51294,-0.51294,
79.4873,11.2822,64.1025,10.2563,49.2305,-15.3848,-58.9744,70.2563,-13.8462,-13.3335,-5.1284,-4.1025,1.5386,-1.5386,
81.7952,14.6155,61.7952,9.4871,46.9231,-14.6155,-73.9744,62.3079,-9.4871,-15.6409,-3.8459,-9.9998,2.3079,-2.3079,
74.3589,0.5127,64.6157,6.1538,36.9233,-4.1025,-74.8716,55.3848,-11.7949,-20.5127,-0.5127,-15.3843,1.0259,-3.5898,
72.0513,0.76904,65.8975,12.564,51.9233,-7.9487,-60.7693,61.2822,-8.9741,-17.6924,-0.76904,-6.4102,3.3335,-4.8716,
72.051,7.9485,57.6921,8.9744,60.2566,-22.9487,-57.1794,54.1023,-0.25659,-15.6409,-5.3845,-2.8206,0.25659,-10.0002,
71.2822,-0.5127,58.4614,7.6924,53.3335,-26.1538,-68.718,44.1025,2.0513,-11.7949,-0.5127,-8.2051,0.5127,-10.2563,
68.7178,-9.7437,63.0767,15.3843,59.4868,-11.1538,-64.6155,46.6665,-5.6411,-7.6924,4.6152,-6.667,4.1025,-4.1025,
65.6409,-5.1282,59.9998,12.8206,53.8459,-15.3845,-72.3076,49.7434,-7.6921,-12.8206,1.5383,-3.0769,2.051,-1.5383,
73.0769,6.4104,63.8464,14.1028,40.7693,-18.2053,-87.3076,47.949,-3.8459,-21.282,-2.3079,-4.8718,2.3079,-2.8206,
74.3591,3.0769,65.1282,14.8718,33.8459,-18.9744,-91.7949,40.5129,-7.6921,-27.1794,-5.1282,-9.7434,2.5642,-2.5642,
68.9746,3.3335,55.6411,10.5127,27.436,-19.7437,-76.7949,28.9746,-9.4873,-26.9229,-3.3335,-10.5127,-6.9229,3.3335,
68.4619,8.9746,47.436,6.4106,28.4619,-18.7178,-84.8716,19.231,-7.4355,-22.3076,-1.7949,-6.4102,-10,1.7949,
69.7434,0.51294,51.282,6.1536,38.9744,-11.7952,-99.4873,24.6155,-10.2566,-15.3845,-2.5642,-2.0515,0.51294,-0.51294,
75.8975,0,58.9746,15.3848,28.2051,-4.6152,-98.9744,32.3076,-8.7178,-10.2563,0,0,-0.5127,5.6411,
73.5901,5.8977,57.6926,10.5129,13.2051,-17.1794,-113.9744,18.718,-6.9231,-16.1536,-1.282,-5.3845,-15.1282,1.282,
68.2048,3.0769,50.7693,5.1282,22.051,-22.0515,-119.4873,5.6409,-5.1282,-16.9231,1.0256,-1.5388,-16.4104,-1.0256,
65.6406,0.5127,41.5381,8.2051,22.564,-13.8462,-105.6414,0,-5.6411,-14.8721,0,2.0513,-16.9233,-1.0259,
68.2051,3.0771,44.6157,7.6924,8.2051,-5.1279,-116.4102,0,-2.564,-13.8462,0,1.0259,-27.1792,-0.5127,
67.1797,3.5898,50.769,8.2051,19.4873,-12.8203,-131.282,-7.6924,-0.5127,-14.8716,3.0771,-2.0513,-33.8462,0.5127,
67.6921,6.6667,50.7693,12.8206,30.7693,-27.8203,-130.7693,-13.8459,-0.51294,-18.4617,0.51294,-9.2307,-30.7693,2.051,
70.2563,8.2051,46.6665,19.4873,15.7693,-26.1538,-133.3335,-4.6152,1.5386,-18.9746,-1.5386,-8.2051,-28.7178,8.2051,
62.0513,0.51318,36.9233,16.4106,0.76929,-20.5127,-144.6152,-14.8716,1.5386,-18.9741,0,0,-37.9485,4.6157,
57.6924,0.25635,34.6152,11.0259,2.8208,-34.6152,-141.282,-29.8716,3.3335,-15.1279,3.8462,-0.25635,-36.1538,-0.25635,
57.6924,2.8203,39.2305,11.0254,3.3335,-40.7693,-151.5386,-41.2822,-0.25635,-14.1025,0.25635,-11.5386,-32.564,0.25635,
62.5645,4.1025,47.1797,12.8208,-9.2305,-26.6665,-164.6152,-30.2563,4.1025,-5.6406,4.1025,-4.1025,-32.8203,7.6924,
58.2053,0.76929,39.7434,5.3845,-2.3079,-29.4871,-151.5386,-42.3079,-0.25659,-6.4104,2.8206,0.25659,-37.6921,2.3079,
55.6409,4.3591,32.051,8.9744,12.6921,-32.5642,-136.5386,-48.9744,-1.7947,-5.8977,1.282,-0.76929,-34.6155,0.76929,
53.3335,2.5645,32.3076,9.231,-0.51269,-28.7178,-142.564,-43.5896,1.5386,-7.1792,0.5127,-5.6411,-41.0256,5.1284,
60,10.2563,45.1284,14.8721,-9.2305,-28.7178,-155.3845,-38.9744,4.1025,-6.1538,4.1025,-4.1025,-43.0769,7.1797,
58.7175,10.5125,45.8972,14.615,-0.76929,-37.1794,-156.1541,-53.5898,1.282,-5.8977,1.282,-4.8718,-37.1794,0.76929,
53.3333,1.0256,39.4871,9.7434,0.51294,-41.0259,-160,-64.6155,1.0256,-4.6155,0.51294,-8.2053,-35.3845,-0.51294,
56.1541,2.3079,34.6155,7.949,3.8464,-38.718,-162.8206,-52.564,-0.76929,-1.7947,1.282,-11.0256,-36.6667,0.76929,
58.2051,3.8462,35.1279,7.436,4.3589,-38.2051,-158.718,-45.8975,-0.25635,-4.3589,1.2822,-13.5898,-35.1284,0.25635,
61.0256,6.1541,41.0256,20.0002,-5.1282,-38.4614,-157.4358,-59.4871,5.1282,-6.6667,6.1541,-11.7947,-30.7693,6.1541,
58.9741,8.2051,40.5127,24.1025,-1.5386,-36.9231,-155.3848,-69.2307,1.5386,-9.231,10.2563,-15.3848,-28.7178,9.2305,
57.1797,6.4102,39.231,14.6152,13.4614,-33.0767,-152.0513,-64.3589,-6.4102,-7.9487,6.4102,-18.2051,-31.0254,6.4102,
60.2563,12.0513,40.769,21.2817,20.769,-27.9487,-155.1284,-66.4104,-4.3589,-2.3076,2.3076,-12.0513,-30.5127,8.4614,
58.2051,12.0513,35.6411,21.7949,10,-35.1282,-170.1284,-81.4104,-1.7949,-6.9229,1.7949,-12.0513,-33.5896,8.4614,
57.4358,6.6667,31.7952,14.3591,3.0769,-40.5127,-185.1284,-87.1794,-2.5642,-8.2048,2.5642,-8.718,-32.8206,6.1541,
57.6926,3.8464,32.0515,14.1028,10.5129,-35.1282,-196.6665,-80.769,-3.3333,-2.8206,0.76929,-0.76929,-27.9485,8.4617,
59.4873,8.2051,36.9229,20.5127,12.3076,-36.4104,-195.8975,-87.1797,-1.5386,-2.0513,1.5386,-2.564,-28.2053,13.8462,
59.4873,11.2817,35.8975,25.6411,6.1538,-45.6411,-209.7437,-94.8718,-1.5386,-4.1025,1.5386,-8.2051,-31.7949,13.8462,
57.1794,5.3845,30.5129,21.7947,8.9744,-55.1282,-212.5642,-99.7437,-0.76929,-2.3079,0.76929,-5.8972,-26.4104,13.5896,
58.718,5.3845,32.051,20.2566,9.9998,-56.6667,-205.8975,-106.4102,-2.3079,-0.76929,0.25659,-0.25659,-21.7947,14.6155,
61.0259,15.8975,37.9487,23.0771,-0.5127,-53.3333,-220.8975,-109.7437,-4.1025,-1.0254,0.5127,4.1025,-25.6411,13.8462,
57.9487,16.4102,39.4873,24.1025,0,-65.1282,-235.8975,-124.1025,-2.564,-2.0513,0,6.1538,-28.2051,13.8462,
55.6411,6.4102,32.0513,25.8975,10.5127,-80.1282,-233.5898,-139.1025,-2.8203,-5.8975,-0.76904,0.76904,-28.9744,14.6152,
55.8972,3.0769,28.2048,23.5896,12.8206,-95.1282,-220,-141.5386,-0.51294,-3.5896,0.51294,-3.0769,-24.1028,18.4617,
52.564,4.8721,29.4873,22.8208,14.6152,-95.1282,-232.0513,-139.7434,0.25635,-0.76904,-0.25635,-0.76904,-17.1792,17.1797,
53.5896,2.8206,26.9231,23.8459,21.282,-109.4873,-234.6155,-147.9487,-0.76929,-2.3079,-1.282,0.76929,-18.718,14.6155,
54.6155,2.3079,23.3333,21.7952,16.6667,-124.4873,-234.6152,-158.2051,-0.76929,-4.3586,0.76929,-3.8459,-25.8975,18.2053,
57.9487,10.769,27.1797,27.6924,8.7178,-126.6667,-249.6152,-163.5898,0.5127,-4.1025,-0.5127,-6.1538,-28.2051,21.0259,
59.7434,12.5642,34.6155,27.9485,14.6155,-124.3591,-259.7437,-171.0256,1.282,-1.282,-1.282,-5.3845,-21.282,19.7434,
57.436,9.7437,30.769,23.0771,20.5127,-134.3589,-244.7437,-181.5383,0,-0.5127,0,-6.1538,-16.9229,18.9746,
57.4355,14.8716,20,26.1538,21.0254,-136.4104,-232.3079,-184.6155,0,-1.0259,0,-4.6157,-21.5386,19.4873,
54.8716,9.2305,16.9229,24.1025,11.7944,-140.5129,-240.5129,-185.6414,0,0,-0.51318,-5.6411,-28.7183,16.9229,
48.2051,-3.0767,17.436,21.5386,1.5386,-155.3845,-249.7434,-189.2307,0,0,2.0513,-4.6152,-26.1538,16.4106,
48.2051,-1.5386,16.9233,25.6411,0,-160.5127,-245.1282,-194.8716,3.5898,0,7.6924,0,-16.9229,23.0771,
46.1538,0,10.769,25.1279,0.5127,-161.0259,-244.6157,-203.0771,0,-5.1284,2.0513,-10.7695,-22.0515,18.4614,
46.1538,2.564,10.769,27.1792,13.8457,-156.9233,-254.8721,-202.0515,-3.0771,0,0,-10.2568,-25.6414,15.3843,
44.1023,-0.51294,10.2561,24.1023,14.3591,-155.3848,-258.9744,-204.6155,-1.0256,1.5383,0.51294,-5.6409,-25.1282,17.9485,
43.0769,-1.5383,12.3079,29.2307,11.7947,-150.7693,-243.9744,-207.1794,3.0769,-2.5642,1.5383,-14.3591,-19.4871,23.0769,
43.5896,2.5642,14.3591,34.3591,16.9231,-148.2051,-229.2307,-210.2563,-1.0256,-6.1541,1.0256,-19.4873,-14.8718,23.5896,
50.2563,9.2305,18.4614,34.3589,15.8975,-142.5642,-236.9233,-208.718,0,-4.1025,0,-11.7949,-15.8977,26.6665,
51.7949,8.7183,15.3848,31.7949,20.5127,-139.4871,-233.3333,-207.6921,3.5898,-3.5898,-4.1025,-12.8203,-16.4102,28.2051,
49.4871,4.8718,15.1282,31.0256,35.5127,-137.6924,-225.8975,-210,1.7947,-1.7947,-2.3079,-15.1282,-13.5898,28.9744,
45.8975,3.3335,19.7437,33.0771,23.3335,-139.2307,-240.8975,-214.6152,-3.333,2.3076,-2.3076,-11.0254,-20.2563,24.8721,
41.7947,0.25659,15.6409,27.4358,8.3335,-138.2051,-254.1025,-214.1025,-0.25659,7.4358,-7.4358,-6.9231,-20.2566,19.2307,
41.2822,-3.3335,6.9233,24.3589,14.6152,-135.1282,-239.1025,-214.6152,5.3848,3.3335,-8.4614,-7.436,-16.6665,19.231,
41.5386,0,4.6157,31.2822,13.3335,-135.8972,-238.9741,-216.9229,2.0518,0,-6.6665,-9.2305,-21.0254,20,
40,0.51269,12.8208,30.2563,6.1538,-130.769,-245.6409,-210.2563,-0.5127,4.1025,-3.5898,-6.6665,-20.5127,23.0771,
43.0771,-2.564,13.8462,31.2822,21.0259,-124.6152,-233.8462,-203.0769,0,4.1025,0,-1.0254,-12.8206,29.231,
44.8716,-0.25635,7.9487,39.231,33.5898,-126.4102,-232.0513,-207.4358,-0.76904,1.2822,0.25635,-0.76904,-11.0254,30,
40.7693,-0.76929,8.9744,36.6667,19.7434,-128.9744,-245.8975,-211.5383,0.76929,2.8206,-3.3333,-7.9485,-8.9744,26.9231,
38.4617,-9.2307,8.2053,33.8459,14.3591,-129.2307,-250.2563,-212.8206,3.5896,-0.51294,0.51294,-11.7947,-4.6155,23.0769,
35.1282,-14.1028,8.4617,31.5383,20.2561,-136.6667,-253.0769,-223.3335,7.4358,-7.949,9.9998,-14.6155,-7.4358,20.2561,
29.4868,-12.5645,10,30.5127,20.2563,-141.7952,-253.0771,-227.949,7.9487,-8.9746,10,-18.2053,-7.9487,19.7432,
28.9744,-8.4617,6.4104,31.5383,15.1282,-131.0256,-246.4102,-215.6409,3.3333,-3.3333,7.4358,-13.5896,-3.8459,21.7947,
32.8206,-7.6921,3.5896,29.2307,21.0256,-121.0256,-247.6924,-207.6924,1.5383,-1.5383,5.6409,-7.6921,-4.1028,23.5896,
37.6921,1.7947,9.4871,32.5642,34.1023,-114.6155,-250.5129,-209.4873,0.76929,-1.7952,-0.76929,-2.8206,-4.8718,24.8718,
38.4614,9.231,8.7183,30.7695,25.6411,-107.6921,-255.3845,-211.7947,-0.5127,0.5127,-7.6924,-1.0254,-6.1538,25.6411,
32.8206,6.6667,-2.0515,29.2307,17.4358,-107.6924,-253.3333,-211.7949,2.5642,2.0515,-6.6667,-6.1541,-5.1282,22.5642,
32.8208,8.7183,-4.1025,33.3335,32.4358,-105.1279,-250.2561,-206.6665,10.2568,2.0513,-2.0513,-6.1538,-3.5894,27.1797,
31.2822,7.6924,-6.6665,26.6665,32.8203,-104.6155,-265.2561,-205.1282,7.1797,2.0513,-5.1284,-2.0513,-9.7437,26.6665,
30.769,7.6919,-10.2568,26.6665,22.0513,-102.0515,-274.3591,-204.6157,0,4.1025,-3.5898,0,-8.7183,22.0513,
36.1536,8.4617,-5.3845,29.9998,29.9998,-101.7949,-259.3591,-207.436,1.282,-0.76929,0.76929,-4.8718,-2.8206,25.8972,
39.4871,11.282,0.51294,33.3333,31.282,-99.4873,-246.6667,-202.5642,6.6667,-4.1028,-0.51294,-3.0769,-3.0769,30.2566,
36.4102,11.2822,-3.0771,37.436,26.6665,-96.4104,-261.6667,-194.8718,6.6665,-0.5127,-3.5898,0.5127,-3.0771,28.2051,
33.8462,5.6411,-3.0767,37.9487,31.2822,-98.9744,-262.0513,-194.8718,6.1538,0,-1.5386,-2.0513,0,30.2563,
30.5127,0.76904,-1.2822,39.7437,30.5127,-100.7693,-257.6924,-202.8206,3.333,-5.8975,-0.25635,-4.3589,0.25635,32.0513,
29.4873,0.25635,-4.3589,39.231,37.1797,-93.0769,-257.6921,-203.3333,-0.25635,-6.4102,0.76953,-1.2817,5.3848,30,
37.1797,5.8975,-3.3335,34.6152,42.8203,-88.4614,-255.6409,-198.718,-0.76904,-3.8462,-1.2822,0.76904,2.8203,25.8975,
44.6155,17.4363,3.0769,35.385,33.3337,-90.2561,-263.5896,-191.7947,1.0256,-1.5383,-2.051,-1.0256,-4.615,28.718,
38.9741,14.3589,3.0767,36.4102,32.3076,-84.1025,-265.6411,-188.2051,0,-5.6411,0,-3.5898,-1.5386,32.3076,
32.8203,6.1538,-3.0771,39.4868,47.3076,-74.8721,-254.8721,-188.718,0,-9.7437,0,-1.5386,1.5381,31.2817,
32.0515,4.3591,-5.3845,36.6667,40.7693,-80.769,-253.5896,-189.4871,4.3591,-2.8206,-1.282,1.282,-2.3074,30.5129,
29.4871,-0.76929,-0.76929,34.1028,25.7693,-94.1025,-259.2307,-194.6152,4.3591,0.76929,1.7952,-2.3074,-2.8206,33.0769,
25.1279,-10.7693,-0.51269,40,15.3848,-103.0769,-266.1538,-200,1.0254,-10.7693,4.6152,-8.2053,0.5127,33.3335,
24.8716,-9.4873,-2.3076,41.7949,14.6152,-103.8462,-268.9744,-199.2307,9.4873,-11.5386,6.9229,-6.4104,2.3076,30.5127,
26.6665,1.5386,-2.564,40,13.8462,-97.9487,-271.282,-194.8718,10.7695,-3.0767,6.6665,-2.0513,-1.5386,27.6924,
21.7949,0.25635,-6.4102,36.1538,16.1538,-104.8718,-274.1025,-193.5896,4.3589,-7.436,7.436,-0.25635,-5.8975,25.8975,
18.718,-6.9231,-7.949,34.1023,23.3333,-119.8718,-268.4617,-196.1541,6.4104,-8.4617,12.5642,1.282,-1.282,27.4358,
18.9741,-8.7178,-11.2822,33.8462,28.7178,-134.8718,-268.718,-204.1025,5.1284,-5.6411,12.3076,0.5127,-0.5127,23.0771,
17.6924,-11.0254,-11.0254,31.5386,26.9233,-133.5896,-275.6409,-207.4358,8.4614,-4.8716,12.0513,0.76904,-0.76904,22.3076,
16.9229,-10.7693,-7.1797,39.4873,23.5898,-124.6155,-277.436,-200.5129,13.3335,-0.5127,7.6924,-0.5127,0.5127,28.7178,
16.1541,-4.3586,-11.0256,39.2307,18.718,-113.5896,-276.1538,-199.7434,3.3333,-1.282,1.282,-4.8718,2.3079,28.9744,
20.2563,2.3076,-15.1279,30.5127,25.8975,-104.8718,-279.7437,-201.282,-2.3076,-7.9487,4.8721,-7.9487,4.3589,26.4102,
21.7949,0.76904,-21.2822,25.8975,40.8975,-99.7437,-290.5129,-201.7949,-0.76904,-10.5127,0.76904,-8.4614,1.2822,22.8203,
19.4871,-1.5383,-20,26.1541,45.1282,-94.3589,-291.282,-199.4871,3.5901,-4.6155,1.0256,-1.0256,2.5642,26.6667,
16.6667,-2.8206,-17.6924,26.9231,30.1282,-102.8206,-293.5898,-199.7437,0.76929,-5.8977,3.8459,-0.76929,1.282,26.9231,
20.5127,0,-18.9744,28.2051,34.3589,-104.6152,-296.4102,-194.3589,-1.0254,-2.0513,0,0.51269,0,26.667,
23.3333,1.282,-19.7437,28.9744,38.718,-101.7949,-300.2566,-193.5898,-1.282,1.7947,-4.8718,2.3074,-2.8206,26.4104,
25.1282,9.2307,-18.4614,36.4104,26.1541,-106.1538,-302.0513,-196.4102,1.0256,-1.0256,-1.5383,4.1028,-2.5642,27.6926,
24.3591,10.5129,-23.3333,34.6155,27.4358,-104.8718,-301.282,-192.564,-0.25659,-4.8718,-1.282,1.282,0.25659,31.0256,
22.5642,4.6155,-23.5898,32.8206,42.4358,-96.4104,-301.5386,-188.2051,-1.5383,-3.5896,-1.0256,1.0256,3.5896,34.3591,
16.9229,2.564,-21.5386,35.8975,43.5898,-100,-312.3076,-191.7949,-1.5386,-5.1284,-0.5127,2.564,0.5127,30.2563,
16.6667,3.3333,-22.3079,36.6667,32.5642,-104.8718,-317.1797,-193.0769,0.76929,-4.8718,-0.76929,1.7947,-0.76929,29.4871,
19.2305,2.8203,-25.8975,39.7437,33.0767,-99.231,-315.1284,-186.4104,-0.25635,-0.76953,0.25635,-0.76953,2.8203,32.564,
16.4102,1.0259,-28.2051,35.8975,37.9487,-96.4102,-321.0256,-189.7434,-2.564,0.5127,-0.5127,-2.564,2.0513,30.7695,
18.9744,9.2307,-25.6411,34.3591,38.9744,-91.7949,-324.1025,-195.3848,-0.51294,1.0256,-2.5642,-2.5642,0.51294,30.7693,
28.2048,17.4358,-22.0513,43.0769,43.0769,-83.0769,-321.0256,-186.1538,-1.0256,1.0256,-1.0256,-2.0515,4.1023,35.3845,
34.1028,14.6155,-16.6665,46.4104,46.4104,-80.7693,-323.3333,-177.1794,0.76929,-2.3076,-1.7949,-0.76929,13.0769,39.7434,
30.2562,11.2821,-16.4103,43.077,49.2308,-81.5385,-332.3077,-182.0514,1.0258,-7.6923,-7.1796,-1.0258,12.3075,39.4872,
26.9231,15.6409,-24.3591,38.2048,52.051,-82.3079,-338.718,-186.4104,-0.76929,-5.3845,-6.4104,0.76929,4.8718,36.1536,
25.3845,14.6155,-25.3845,33.5901,44.8718,-83.8459,-349.9998,-181.7947,-4.3586,-0.76929,-3.8459,1.7952,0.76929,29.4875,
21.282,13.0769,-23.8462,35.1282,40.7693,-80.7693,-358.2051,-179.7437,-4.8718,-1.7947,-2.3079,1.7947,2.3079,29.4871,
12.0515,18.2053,-27.4358,35.1282,51.5383,-75.1282,-356.1538,-185.8975,-1.7947,-3.8459,-2.8206,3.3333,1.7947,32.0515,
7.1794,21.5383,-28.718,36.9231,58.4617,-71.7949,-364.1025,-189.2307,-4.1028,-1.0256,-4.1028,5.1282,1.0256,31.282,
8.2048,14.3586,-26.6667,35.3845,53.3333,-69.7437,-374.8721,-185.6411,-7.6926,1.0256,-3.0769,-1.0256,4.615,29.2307,
15.1282,16.6667,-22.3076,37.1794,59.7434,-66.4102,-378.718,-182.8206,-0.76929,-1.282,0.76929,-2.8206,6.4104,33.5896,
8.4614,18.7178,-25.8975,41.2822,63.3335,-74.6155,-384.8718,-187.4358,2.3076,-7.436,-2.3076,-6.4102,7.436,33.0771,
0.76904,5.8975,-28.4617,41.7949,59.231,-79.2307,-382.3076,-186.9231,2.8203,-10,-0.76904,-13.0769,14.6152,33.5898,
5.1282,-1.0256,-32.3076,41.0256,64.6155,-74.3589,-381.5383,-183.5896,1.0256,-11.282,1.5383,-12.3076,12.8206,33.3333,
6.4102,1.2817,-38.718,37.1792,67.9487,-85.8975,-389.4873,-185.8975,-0.25635,-8.4614,0.25635,-7.9487,8.9741,31.5386,
3.8462,0.25635,-38.718,38.2051,60.769,-100.8975,-388.9746,-186.9231,-0.25635,-6.9233,0.25635,-8.4617,12.0513,33.0767,
7.9485,2.8206,-35.1282,43.8459,59.2307,-107.9487,-384.8718,-182.8206,0.25659,-5.8972,-0.25659,-5.8972,9.9998,33.5896,
11.0259,8.4614,-33.0769,37.1797,66.4102,-102.8206,-390.5127,-183.8462,0.76904,-1.7949,-0.76904,-5.3848,1.2822,30,
11.2817,11.7949,-33.8462,35.3848,76.9229,-104.1025,-389.231,-182.0513,-0.5127,0,0,-4.1025,5.6411,32.8203,
5.6411,6.1538,-41.5383,35.8975,66.1538,-101.5383,-389.2307,-181.0256,-3.5898,-1.5386,-4.6152,1.5386,12.3076,34.3589,
0.25635,1.7949,-41.7949,33.0767,51.1538,-99.7437,-400.7693,-186.4104,-2.3076,-0.25635,-6.4102,7.9487,9.4873,31.5386,
2.564,5.1279,-37.9487,34.3589,61.0254,-101.0256,-403.5898,-188.718,-6.1538,-3.0771,-2.564,4.1025,5.1279,28.2051,
11.0256,11.0256,-32.0513,41.7947,76.0254,-96.6667,-388.9744,-181.282,-7.9487,-5.3845,-0.76929,0.76929,14.6155,35.6409,
8.9741,11.0254,-32.5642,46.9229,82.8203,-98.2053,-388.9746,-176.6667,-6.4104,-4.8721,-1.7949,1.7949,20.2563,39.2305,
0.5127,5.6411,-35.8975,43.0767,78.9741,-102.0513,-403.9746,-181.0256,-9.231,-10.2566,-0.51269,1.0254,16.4102,34.3589,
5.1284,3.5898,-28.2051,45.6411,84.1025,-96.9229,-403.0767,-180.5127,-2.564,-10.2563,2.0513,-2.0513,17.436,37.9487,
5.3848,-0.25635,-31.0256,51.5386,84.3589,-98.7178,-398.2051,-181.7949,4.3589,-6.4102,0.25635,-10,15.1284,39.231,
1.0256,-1.0256,-35.8972,50.2566,85.1282,-100,-401.5383,-180.5127,7.6926,-1.0256,6.1541,-4.1025,18.4617,41.0256,
-0.76904,-3.3335,-36.1538,41.2822,79.7437,-95.1282,-412.5642,-183.3333,4.3589,-4.3591,1.2822,0.76904,15.1279,37.1797,
5.8972,-0.76929,-36.1538,42.3079,80.7693,-84.3589,-410.5129,-182.8206,1.7947,-6.9231,-6.4104,0.76929,12.5642,35.6409,
7.1792,0,-39.4873,44.6152,91.2817,-82.5645,-401.0259,-178.4617,0,-6.667,0,4.1025,21.0254,38.4614,
3.8462,-2.3076,-41.282,46.4102,95.6411,-86.4102,-402.8206,-173.0769,-2.8206,-3.8462,2.3076,8.9746,22.8208,41.7949,
4.6154,-2.0514,-43.077,43.5895,87.1793,-90.2565,-410.2565,-174.359,-3.077,2.0514,-2.5643,9.2306,14.8717,41.5382,
0.51294,-7.6924,-50.7693,39.9998,72.1793,-95.8975,-419.4873,-187.6924,-4.6155,-0.51294,1.5383,5.6409,12.8206,35.3845,
-8.2053,-16.4104,-55.3848,44.1025,68.7178,-100.5129,-428.2053,-189.231,2.0513,-2.0513,9.2305,4.6152,18.9741,33.8462,
-17.1797,-28.9746,-56.1541,37.6924,69.4868,-110.5129,-431.5386,-186.4104,4.3589,0.25635,4.3589,-0.25635,13.0767,30,
-17.6924,-28.9744,-51.0259,35.6411,71.0254,-108.9744,-423.8462,-187.9487,0.25635,-0.25635,0.76904,1.2817,6.9229,27.9487,
-15.1282,-19.7437,-48.9744,40.2563,74.1025,-94.6155,-422.8206,-190,1.7949,-1.7949,2.8203,6.9229,9.4873,28.9741,
-8.718,-9.7437,-43.0769,45.6409,77.9485,-83.0769,-424.1025,-185.6411,4.6155,-1.0256,1.0256,4.1023,12.8206,33.3333,
-1.0254,0,-37.4358,48.2051,85.1284,-77.4358,-417.9485,-175.8972,0,1.5386,0.51318,-2.564,11.2822,37.436,
1.2822,4.8716,-39.7437,45.3848,93.0767,-72.0513,-414.6155,-169.4873,-2.3079,-1.2822,1.2822,-1.2822,7.436,38.7178,
1.282,3.8459,-48.4617,41.282,89.4871,-73.0769,-415.6411,-177.1794,-4.8718,-3.8459,-1.282,2.8206,6.4104,34.1028,
3.8462,-0.25635,-51.5383,35.1284,84.8721,-78.2051,-412.564,-183.8459,-5.3843,0.25635,-1.2817,1.2822,11.0259,33.5898,
1.5383,-2.5642,-49.7437,34.3586,88.718,-76.9231,-415.3848,-177.9487,-3.0771,3.5896,-1.5383,2.5642,13.3333,37.4358,
-1.0256,1.0256,-51.282,43.0769,90.7693,-71.282,-416.4102,-175.3845,-1.0256,3.5901,-2.5637,8.718,11.282,37.4363,
-1.5386,-1.0254,-54.3589,41.5386,82.0513,-74.3589,-411.282,-178.9744,0.5127,1.5386,-0.51269,6.1538,8.2051,34.3589,
-5.3843,-3.8462,-56.6665,36.667,76.1538,-76.1538,-412.0513,-175.6409,-1.7949,2.8208,1.7949,2.3076,6.9233,32.0513,
-6.9229,-2.3076,-55.6409,36.667,77.6924,-71.0256,-413.5896,-174.1025,-3.8462,4.8721,2.3076,4.8721,12.0513,32.5645,
-3.0767,0,-50.7693,41.0259,80.5127,-70.7693,-408.2051,-172.3076,0,0,4.6152,6.6665,17.9487,35.8975,
-2.8206,0.76929,-49.4871,45.8977,85.8977,-72.564,-407.9487,-171.0256,-0.76929,-3.8462,4.8718,4.8718,17.1794,36.1541,
-5.3848,0.25659,-48.9744,41.282,86.9231,-66.9231,-409.4873,-175.6411,-1.7947,-0.25659,4.8718,5.3845,15.1282,36.6667,
-6.6665,0.5127,-53.3335,39.4873,80.5127,-64.1025,-409.7437,-179.4873,-2.0513,-0.51269,3.5898,4.1025,16.4102,35.3848,
-6.9229,1.7949,-58.718,43.8462,84.3589,-65.3845,-410.5127,-174.1025,-1.7949,-5.8975,3.3335,4.8716,16.1538,32.564,
-7.436,1.7949,-59.7437,39.7437,89.4873,-61.2822,-413.5898,-171.0256,-1.7949,-4.3589,5.8975,3.333,14.6152,30.5127,
-6.1538,6.6665,-63.0769,38.4614,86.6665,-50.2563,-415.8975,-171.7949,-0.5127,-2.564,5.1284,0.51269,16.9233,31.2822,
-7.436,9.4873,-62.8206,37.6924,85.3848,-51.5386,-412.0513,-171.5386,1.2822,-5.8975,2.3076,-1.2822,15.1284,32.0513,
-10.2566,5.1282,-56.9231,34.3591,91.7947,-58.9744,-411.7949,-172.3079,-0.51294,-4.6155,0.51294,1.0256,11.282,29.2307,
-10.5127,1.2822,-57.6921,32.5645,94.6157,-52.564,-422.8203,-174.6152,-2.8203,0.25635,-0.25635,5.3848,12.0513,29.4873,
-3.8462,7.9487,-55.6411,36.1538,88.9746,-43.8462,-427.4358,-171.0256,-0.76904,0.25635,-0.25635,7.9487,10,32.0513,
-0.25635,15.6411,-58.2051,37.1797,93.0771,-43.8462,-416.1538,-164.3589,-1.7949,0.25635,-1.7949,10,5.8975,30.5127,
-10,5.3848,-70,27.9487,98.7178,-48.9744,-410.5127,-166.4102,-4.3589,1.2822,-1.2822,11.0259,7.436,31.5386,
-12.3076,1.0256,-66.1538,33.8464,92.3079,-48.7178,-413.8462,-168.7178,-1.0256,-1.5383,6.1541,9.2307,13.8464,37.4358,
-10.2561,3.0769,-60.5127,36.4104,80.0002,-47.6921,-419.4871,-171.282,-3.0769,-12.8206,4.1028,4.1028,8.718,30.7693,
-6.1536,2.5642,-58.4614,32.3079,86.1541,-36.9231,-412.8203,-166.6665,-2.5642,-9.7434,3.0769,9.2307,9.7439,29.2307,
-4.6152,1.5386,-59.4873,38.9741,94.8716,-33.8462,-411.282,-167.1794,-1.5386,-2.0513,4.6152,10.2563,14.8716,33.8462,
-7.9487,1.7949,-64.3589,39.231,90,-45.3845,-416.1538,-175.1282,-1.7949,-6.4102,3.8462,4.3589,14.1025,33.5898,
-5.8977,1.7947,-65.3848,34.6155,88.9744,-41.2822,-415.1284,-170,-1.282,-8.4617,1.282,3.8459,12.5642,29.4871,
-3.0767,3.5898,-63.5896,37.9487,99.4873,-31.7947,-409.7434,-155.3845,-0.5127,-4.1025,0.5127,4.6152,13.8462,33.8462,
-6.1536,3.0769,-64.6152,35.3845,107.1794,-37.9487,-407.6921,-157.4358,1.0256,-3.5896,-1.0256,1.0256,14.3591,37.949,
-6.9229,7.436,-64.8718,36.6665,107.436,-34.6155,-409.4871,-162.3076,0.25635,-0.76904,-0.25635,4.8716,14.6152,36.1538,
-6.6665,12.3076,-67.6924,35.8975,102.0513,-25.6411,-414.3589,-158.4617,-3.0771,-0.5127,0.5127,7.6924,11.2822,32.3076,
-7.6921,13.8464,-66.6665,33.3333,100.0002,-27.1794,-412.8203,-157.4358,-0.51294,-1.5383,0.51294,5.6414,12.8206,32.8206,
-11.2822,11.7949,-66.1538,33.3335,95.3848,-32.8206,-410.2563,-162.0513,0,-1.0259,0,2.564,12.8203,32.3076,
-13.8462,8.7178,-67.1794,32.3076,86.1538,-35.3848,-410.2563,-164.6155,-0.5127,-0.5127,0.5127,4.1025,10.769,30.769,
-9.2305,8.7183,-66.1536,35.3848,88.7183,-35.8972,-412.8203,-163.0767,0,-1.5381,0,9.7437,11.7949,31.7949,
-7.1797,6.6665,-62.0515,36.4102,99.4868,-31.7949,-412.8206,-161.0259,0,-3.5898,0,10.769,13.8462,33.8462,
-13.0767,5.8975,-59.7437,33.5898,98.7178,-29.4871,-414.1025,-164.3589,-0.76904,-3.8462,0.76904,5.8975,12.564,28.9746,
-14.1023,12.0515,-62.8203,35.1282,98.718,-26.9229,-416.1536,-161.7947,-1.282,-2.3074,1.282,4.8718,13.0769,31.5388,
-9.9998,15.1282,-64.8718,33.5896,105.8972,-24.3589,-411.5383,-153.0769,-2.3079,0.76929,-0.76929,9.4871,16.6667,40.2566,
-6.4102,14.6152,-63.3333,34.1025,111.5386,-23.3333,-405.3845,-150.5127,-3.8462,1.2822,-1.2822,11.0259,15.1284,38.7178,
-8.9741,12.0513,-61.282,35.6411,115.6411,-21.7949,-404.8718,-156.6667,-1.7949,-2.8203,1.7949,5.3848,15.1284,36.6665,
-13.8462,8.7178,-63.5898,34.3589,113.8462,-23.5898,-408.2051,-157.436,-2.0513,-3.5898,4.1025,2.0513,16.4102,39.4873,
-13.0769,8.4617,-69.9998,34.6155,108.4617,-23.3333,-416.1538,-149.9998,-4.8718,-0.76929,0.76929,7.4363,12.5642,35.6414,
-11.282,7.1794,-70.2566,35.3845,107.6921,-20.0002,-418.9746,-150.7693,1.0256,-1.0256,-1.5388,9.2307,12.8206,32.8206,
-13.5898,4.8716,-68.4614,36.6665,112.0513,-24.3589,-418.2051,-159.2307,2.8203,-9.4873,-0.25635,0.25635,12.564,34.1025,
-14.8718,9.7437,-67.1794,36.4102,116.4102,-20.5127,-415.8975,-160,-1.5386,-4.6152,3.5898,1.5386,13.8462,30.2563,
-20.2563,3.3337,-73.5896,29.4875,103.8464,-17.1794,-421.282,-159.7434,-2.3074,0.76929,-0.76929,4.3591,7.4363,23.3337,
-21.0256,-0.5127,-76.4102,32.3076,94.8721,-19.4871,-424.1025,-153.8459,5.1284,0.5127,-2.0513,4.1025,3.0771,27.6924,
-16.6667,-0.76929,-71.0259,32.5642,98.718,-24.3591,-416.6667,-154.1028,4.3586,-0.76929,1.7947,0.76929,4.3586,31.5383,
-17.4358,-6.1538,-64.1025,33.8462,100.5127,-28.2051,-414.3589,-161.5383,3.5898,-2.0513,2.0513,2.564,4.1025,31.2822,
-23.0769,-10.2566,-68.2051,33.3333,93.3333,-32.8206,-425.6411,-165.1282,9.2307,-1.5383,1.5383,6.1541,2.051,28.718,
-24.1025,-4.6155,-76.4102,28.2053,92.3079,-31.282,-428.718,-164.1025,7.1794,-2.0515,3.5896,3.5896,2.0515,23.0769,
-21.7949,0.25635,-81.282,29.4873,103.3335,-23.3335,-419.2307,-164.3591,-0.25635,-1.2822,2.8203,0.76904,3.3335,21.7949,
-23.3335,-2.8208,-80.2566,27.9487,107.9487,-22.3079,-416.6667,-164.8721,3.8462,-1.7949,3.333,1.7949,4.8716,24.3589,
-20.7693,-2.3076,-74.1025,30,101.7949,-20.7693,-418.718,-160.7693,9.4873,-5.8975,6.4102,2.3076,7.436,25.8975,
-23.3333,0.25635,-74.6152,32.0513,102.3081,-16.1538,-418.2048,-159.7434,4.8721,-5.3843,4.3594,-0.25635,6.4106,27.9487,
-27.1794,-3.0769,-77.9487,26.1541,109.2307,-11.7947,-415.8975,-158.9744,1.0256,-1.0256,4.1028,3.5896,5.1282,29.7434,
-22.0513,0,-82.051,26.1538,110.7695,-6.6665,-414.8716,-155.8972,0,-4.6152,1.5386,4.6157,4.6157,27.6924,
-18.9741,6.1538,-82.051,26.1538,108.2051,-3.5898,-413.8459,-156.4102,2.5645,-4.1025,-2.0513,2.0513,2.0513,28.2051,
-26.9231,0.76929,-82.3076,18.718,98.718,-8.9744,-416.6667,-160.7693,0.76929,3.3333,-1.282,2.3079,-0.76929,28.4617,
-25.8977,-2.3076,-83.8462,16.6665,93.5894,-16.1538,-414.6155,-160.2566,0.25635,2.8203,0.25635,2.8203,-0.25635,30,
-21.7947,2.8206,-80.2563,20.7693,95.1282,-16.1541,-409.4873,-157.6924,2.8206,-0.25659,0.25659,5.3845,-1.282,28.4617,
-28.2053,3.5898,-80.5129,26.6665,89.7437,-13.8462,-409.7437,-153.8462,1.5386,3.5898,-1.5386,7.6924,-7.1797,25.1279,
-31.0256,1.7949,-85.8975,25.8975,86.9233,-12.0513,-407.4358,-149.4871,4.3589,5.3848,-1.7949,7.436,-2.8203,30,
-29.231,0.51294,-88.2053,22.5642,89.2307,-14.8718,-405.6411,-152.3079,2.5642,-0.51294,-1.0256,4.6155,2.5642,28.2048,
-29.7437,0.5127,-85.1284,29.2305,94.8716,-13.3335,-403.0771,-150.7693,-2.0513,-0.5127,4.1025,7.6924,4.6152,27.6924,
-35.8975,-9.7434,-86.6667,28.2053,86.1541,-13.3333,-404.1025,-148.718,0.51294,-0.51294,2.0515,6.1541,3.0769,29.2307,
-33.5898,-10,-85.8975,31.0254,78.2051,-13.5898,-403.3335,-147.436,3.3335,-1.2822,1.2822,3.3335,4.3589,26.4102,
-30,-0.25635,-84.8718,32.564,82.8208,-8.9741,-398.2051,-144.8718,-2.8203,0.25635,4.3589,2.3076,5.8975,25.8975,
-31.7949,3.0767,-85.6411,26.1538,86.6665,-2.564,-394.8718,-142.5642,-4.1025,0,0,3.0767,4.1025,30.2563,
-28.4617,2.3074,-82.3079,28.9744,87.9485,-1.282,-388.4617,-139.231,0.76929,-0.76929,-4.3591,4.8718,3.8459,27.4358,
-25.6409,-0.51294,-75.8975,33.3333,92.3079,-4.1023,-381.0256,-137.9487,4.1028,0.51294,-2.051,1.5383,10.2566,25.1282,
-27.6921,-1.0256,-71.7947,31.282,91.7952,-7.1794,-382.564,-142.564,5.6409,3.5896,1.0256,-5.1282,13.3333,29.7439,
-31.282,-5.6411,-80.5127,24.6157,81.5386,-16.9229,-386.1538,-150.2563,7.1797,3.5898,7.1797,-3.5898,13.3335,23.0771,
-35.3845,-15.8975,-91.282,20,78.4614,-27.6924,-383.5896,-154.8718,5.1284,1.5386,9.7437,-1.5386,10.769,13.3335,
-37.9487,-16.9231,-92.3079,19.9998,83.0769,-23.0769,-381.0256,-152.3079,0.51294,1.5383,4.6155,-0.51294,4.6155,15.8972,
-36.1538,-9.4871,-86.9231,18.718,83.8459,-13.0769,-376.6667,-146.9231,-0.25659,0.76929,0.25659,3.3333,2.8206,19.7434,
-29.2307,-1.0256,-80,28.718,90.7693,-5.6409,-369.2307,-136.9231,0.51294,5.6409,-0.51294,11.282,10.7693,26.6667,
-28.4614,-4.3589,-78.2051,33.0771,90,-1.2822,-366.9231,-138.2051,0.76904,9.4873,-0.76904,15.6411,11.0259,29.4873,
-33.3333,-12.3079,-80,26.6667,80.0002,-3.0769,-369.7437,-146.1538,0.51294,1.5383,-0.51294,8.2053,5.6409,21.0256,
-33.3333,-8.2051,-82.0513,31.7949,85.6411,0,-367.6924,-137.4358,0,-4.6152,2.564,5.6411,10.2563,24.6152,
-37.9487,-8.2051,-88.2053,27.1792,85.1279,2.0513,-366.6667,-135.8975,-5.1284,-2.0513,2.0513,4.6152,8.7178,29.7437,
-40,-9.7439,-91.7949,25.6409,76.9231,-1.0256,-366.1541,-143.0771,-4.6155,2.051,1.0256,4.1023,4.6155,23.0769,
-36.1538,-5.8972,-89.4871,29.4871,83.8464,-2.8206,-365.8975,-142.3076,2.3079,0.76929,-0.76929,1.282,5.8977,20.7693,
-34.3591,-6.1538,-85.1284,26.1538,92.3076,4.1025,-365.1284,-134.8718,3.0767,0,-2.564,0,6.1538,25.6411,
-36.4102,-5.6411,-89.2307,23.5898,89.231,11.2822,-362.564,-135.8972,0,0,-1.0254,3.5898,4.6157,25.6411,
-38.4614,-2.564,-92.8206,24.1025,83.0771,4.6152,-355.8975,-142.0513,0.5127,-1.5386,-0.5127,2.0513,4.6152,24.6152,
-37.1797,1.7949,-87.436,26.9229,84.3589,-1.7949,-349.4873,-135.1284,-1.2822,0.25635,-0.25635,1.2817,4.3589,25.8975,
-37.4358,-3.0769,-91.7947,23.0769,87.1794,3.0769,-351.7947,-128.2051,-3.0769,1.0256,-1.0256,5.6414,3.0769,24.1028,
-38.4614,-11.7949,-92.3076,18.9746,84.6157,6.667,-350.2563,-130.769,0,-0.5127,0,5.1284,3.0771,23.5898,
-38.9744,-9.7437,-87.1797,24.1025,84.1025,1.5386,-342.0513,-133.8462,-0.5127,-3.0771,1.5386,1.0254,0.5127,23.0767,
-38.718,-3.8462,-88.4617,24.3589,88.9741,0.25635,-334.6155,-128.4617,-2.3076,-0.25635,2.8203,8.9741,8.9741,24.8716,
-42.0515,-8.2053,-91.7952,22.5637,85.6409,1.0256,-333.8464,-127.1797,-1.0256,-1.5388,3.5896,13.8459,15.8972,25.6409,
-47.1797,-14.8721,-91.7949,24.1025,74.3589,1.0254,-338.4617,-129.231,0,-7.1797,0,5.6411,7.6924,19.4873,
-48.9744,-18.2051,-94.1025,23.3335,72.0513,1.7949,-339.2307,-127.9487,-0.25635,-5.8975,0.25635,0.76904,3.3335,15.6411,
-45.3845,-14.6155,-97.6924,23.3333,82.3079,1.7947,-332.5642,-128.9744,-2.3079,-1.282,1.282,3.8459,4.8718,18.718,
-38.4614,-5.1279,-92.3076,24.6152,90.769,5.6411,-325.6409,-128.2051,-0.51269,-0.51269,0.5127,5.6411,2.0513,20,
-34.8718,1.0254,-87.6924,24.6152,90.2563,12.8203,-325.6411,-123.0769,0,-1.0259,0,3.5898,-2.0513,18.4614,
-39.7437,0.76929,-94.1025,20.2566,87.9485,13.5896,-325.3845,-121.7949,-3.3333,-0.76929,-0.76929,3.8459,0.76929,19.7434,
-40,1.5383,-96.4104,13.8459,88.2048,6.6667,-322.5642,-125.1282,-4.1028,-4.1028,-1.5383,1.5383,2.051,20.5129,
-28.9744,6.9229,-90,20.769,93.0771,8.4614,-323.3333,-123.3333,0.25635,-3.8462,-1.2822,-0.25635,0.76904,16.1538,
-31.0259,4.8718,-87.436,21.7947,93.5896,9.4871,-324.8718,-123.3335,-1.282,-0.76929,-0.76929,3.3333,0.76929,8.4612,
-37.6924,-1.282,-88.9744,15.1282,89.4871,3.8459,-319.7437,-122.3076,-5.3845,0.76929,-0.76929,3.8459,1.282,8.4617,
-35.6409,-0.25635,-92.564,18.7183,85.3848,6.9233,-320.769,-115.1282,-4.3589,-0.76904,0.25635,1.7949,2.3076,15.1284,
-40.5129,-1.5386,-94.8718,20.5127,77.436,10.2563,-334.8718,-118.4617,-3.0771,-5.6411,1.5386,2.0513,2.0513,14.8716,
-45.3848,-1.282,-94.6155,20.7693,77.6921,7.9485,-339.7437,-122.8206,-5.8977,-6.4104,3.8459,1.282,5.3845,12.5642,
-42.3079,0.25635,-96.6667,18.7178,85.8975,11.5386,-330.5129,-118.718,-6.9233,-5.8975,1.7949,-0.25635,9.4873,13.0767,
-35.8975,3.5896,-97.436,19.4871,88.718,21.0256,-327.1794,-114.8718,-4.6155,-5.1282,-3.5896,4.1023,8.718,12.8206,
-35.3848,8.7178,-94.3591,23.0767,89.7437,21.0254,-330.2563,-117.436,-7.1797,-3.5898,-4.6152,3.5898,6.6665,12.8203,
-35.3845,6.6665,-90.2563,23.0771,96.4102,16.4102,-321.0256,-115.8975,-2.0513,-0.51269,0.5127,-0.51269,12.3076,18.4614,
-34.6152,3.3335,-93.5896,23.3335,96.1538,18.7183,-317.1794,-114.1025,0.25635,-1.7949,-1.7949,-0.25635,10,19.231,
-35.6411,3.8462,-95.6411,21.7949,91.0254,23.8462,-319.7437,-117.1794,-7.9487,-1.7949,-8.9746,1.7949,4.3589,16.1538,
-38.718,1.282,-87.436,21.282,89.4871,19.2307,-312.0513,-115.1282,-8.4617,-0.76929,-11.0256,0.76929,5.8972,18.718,
-41.282,1.2822,-87.436,25.8975,86.4102,16.1538,-306.4104,-109.4873,-4.8721,-1.2822,-7.9487,2.3076,4.3589,18.7178,
-43.0771,1.0256,-94.8721,24.1023,87.1794,21.0256,-308.2053,-108.7183,-5.1282,-1.0256,-1.0256,5.1282,4.615,14.8718,
-46.9233,-0.76929,-94.6155,20.7693,93.0769,17.6921,-303.3335,-112.5642,-4.8718,-0.76929,0.76929,10.5125,12.5637,14.1023,
-50.769,-3.5896,-97.9487,16.9231,85.6409,8.718,-298.4614,-117.9487,-6.6667,3.5896,-5.6409,12.3079,10.2566,14.8718,
-49.4871,-8.4617,-104.3589,13.0769,76.1541,8.4617,-298.718,-118.718,-7.9485,6.4104,-4.8718,10.5129,4.8718,16.1541,
-48.718,-11.2822,-104.1025,16.9229,73.8462,14.8716,-299.4873,-113.8462,-7.1797,0.5127,-0.5127,7.1797,8.2051,13.8462,
-45.1282,-4.1028,-94.8718,22.5642,78.9744,15.8972,-293.3335,-110.2566,-4.1028,-0.51294,0.51294,10.2561,12.8206,15.8972,
-45.8975,-1.282,-91.0256,20.2566,82.3079,12.5642,-290.5127,-115.6411,-5.3845,1.282,-2.8206,11.0256,8.9744,16.1541,
-48.7178,-8.7178,-91.7947,18.9746,76.9233,17.9487,-285.1282,-116.4102,-7.1792,3.5898,-3.5898,10.2563,8.2051,13.3335,
-47.1797,-12.3081,-90.7695,20,68.2051,21.5381,-278.9746,-111.2822,-6.667,2.0513,-2.0513,8.7178,10.2563,11.7949,
-41.5383,-5.1282,-91.7949,22.5642,77.4358,20.0002,-279.4871,-107.6921,-4.6155,1.0256,-1.0256,9.2307,10.2566,15.3845,
-42.8206,-5.3845,-97.6924,16.1536,84.8718,16.1536,-279.7437,-113.0771,-6.4104,2.8206,-2.8206,7.4358,7.9485,15.6409,
-46.6667,-10.2566,-99.4873,13.8459,73.3333,16.4104,-277.9487,-114.8718,-11.282,3.0769,-3.0769,5.1282,9.2307,12.3079,
-42.0515,-4.1025,-95.3848,24.6152,76.4102,20.5127,-273.8464,-102.5642,-7.6924,0,0,10.2563,13.8462,14.8716,
-41.282,0.76929,-94.1025,23.8459,87.9485,24.3591,-267.4358,-97.1794,-4.3591,-2.8206,-0.76929,9.4871,12.5642,13.5896,
-44.8716,0.25635,-100.2563,16.667,81.2822,25.3848,-265.8972,-101.282,-10,-0.25635,-6.4102,5.3848,6.9233,7.9487,
-47.6924,-3.5896,-103.5898,11.282,70.2566,21.0256,-267.6924,-103.5898,-10.2566,3.5896,-7.6921,7.6921,5.6409,6.1541,
-45.6409,-4.1025,-96.9229,15.3848,68.7183,15.8975,-266.1536,-101.0254,-6.1538,4.1025,-4.6152,11.2822,7.6924,8.7183,
-45.6411,-2.5642,-94.8718,18.9744,68.2053,16.4104,-264.6155,-98.9744,-11.282,2.5642,-8.718,13.8459,4.1023,13.3333,
-44.8718,-3.8459,-95.6411,18.2053,67.4358,20.7693,-256.6667,-94.1025,-7.9485,3.8459,-5.8972,18.718,6.4104,20.2566,
-45.6409,-12.8206,-101.5383,18.9744,64.1028,17.949,-252.3076,-100,-4.1023,1.5383,-1.5383,12.3079,8.2053,14.8718,
-48.4614,-14.6155,-101.7949,21.7947,64.3591,17.1794,-250.5129,-103.3333,-3.3333,0.76929,-0.76929,8.9744,10.5129,10.5129,
-45.3845,-6.9231,-95.1282,22.8206,70.5129,22.8206,-243.8462,-95.1282,-3.3333,1.282,-1.282,11.0256,12.5642,17.1794,
-39.4871,-6.6665,-99.4871,23.5898,76.4106,26.667,-237.4358,-91.282,-4.1025,2.0513,-2.0513,9.7437,10.7695,19.4873,
-46.1538,-15.8975,-106.6667,16.4102,76.4102,22.564,-236.4104,-98.9744,-5.6411,2.0513,-2.0513,4.6152,8.2051,14.3589,
-49.2307,-13.3335,-104.6155,14.3589,77.436,22.564,-235.8975,-98.9744,-6.1538,0.5127,-0.5127,2.564,7.6924,12.8203,
-40.769,-7.9487,-102.3076,18.2051,78.2051,27.436,-231.5383,-88.4614,-4.8716,-0.25635,0.25635,6.9233,13.0771,15.6411,
-41.7947,-12.5642,-104.3589,17.6926,72.5642,26.9231,-232.0513,-87.4358,-5.3845,1.282,-1.282,11.0256,12.0515,16.6667,
-48.2051,-14.8718,-108.718,18.9744,68.718,24.1023,-230.7693,-96.4104,-8.2053,3.0769,-3.0769,8.718,4.6155,15.3845,
-44.6155,-13.3335,-107.1794,17.436,70.2563,20,-228.2051,-100.5129,-10.2563,4.1025,-3.5898,6.1538,3.5898,11.2822,
-43.3333,-15.1279,-108.4614,12.564,68.9746,13.5898,-236.1538,-95.6409,-12.0513,5.3848,-3.3335,7.9487,3.3335,5.8975,
-48.9744,-16.6667,-112.0513,8.9744,64.3591,13.0769,-236.6667,-93.0769,-12.5642,3.3333,-0.76929,11.5383,0.76929,4.3591,
-46.1538,-14.3589,-107.1794,11.7949,65.1284,17.9487,-221.6667,-93.8459,-9.2305,0.51269,-0.5127,15.8975,3.0771,9.231,
-42.8206,-11.5383,-103.8462,20.7693,67.4358,21.282,-215.6411,-89.4873,-6.4104,2.3079,-2.3079,17.6921,6.9231,13.0769,
-50.2566,-14.8721,-106.1541,18.9741,62.564,17.9487,-221.0259,-90.2566,-5.6411,4.1025,-2.0513,16.4102,2.0513,12.3076,
-50.2566,-17.4363,-102.5642,17.4358,57.9485,18.9744,-218.4617,-90.7695,-6.1541,1.0256,-1.0256,17.9485,2.051,12.8206,
-44.1028,-15.8977,-100.0002,20.5125,63.5896,23.5896,-214.8721,-85.1284,-4.6155,1.0256,-1.0256,15.3845,9.7434,16.9231,
-45.6409,-16.9231,-101.0254,18.4617,66.6667,23.0769,-218.4614,-87.1792,-5.6409,3.0769,-3.0769,9.7439,6.6667,14.8718,
-43.0769,-12.8206,-96.4102,20.5129,65.6409,24.6155,-215.3845,-88.7178,-6.1536,3.0769,-3.0769,14.8718,4.1028,14.8718,
-39.2307,-11.5383,-94.1025,18.2053,66.4104,27.9485,-212.5642,-80.2563,-4.8718,0.76929,-0.76929,12.0515,8.9744,20.2566,
-42.8206,-14.1025,-99.7437,14.1025,66.9229,26.9229,-214.1025,-75.1282,-4.3589,2.3076,-2.3076,2.8203,12.0513,19.7437,
-52.8206,-21.5383,-106.1538,12.3079,52.8206,16.4104,-217.4358,-88.2051,-5.1282,-0.51294,0.51294,0.51294,8.718,10.2566,
-53.3333,-28.2051,-102.564,14.3591,39.4871,4.6155,-213.8462,-98.4614,-0.51294,-3.5896,12.3079,0.51294,9.7434,9.2307,
-49.4871,-28.9741,-104.3589,18.2051,41.2822,2.3076,-214.6155,-93.5898,-2.3076,-2.3076,6.9229,3.3335,6.9229,11.0259,
-48.4614,-19.2307,-102.8206,17.6921,47.4358,15.6409,-214.6155,-81.282,-3.3333,1.7947,-1.7947,17.1794,7.4358,13.0769,
-47.9487,-14.1028,-97.6924,19.7434,47.9485,23.8459,-208.9744,-77.1797,-3.3333,0.76929,-0.76929,18.2048,10.5125,15.6409,
-47.436,-13.5898,-99.2307,23.8462,55.1284,24.8716,-199.7437,-79.2307,-2.3076,-1.2822,1.2822,11.5386,12.564,17.6924,
-47.6926,-15.8975,-102.0515,21.5381,57.9487,24.1025,-195.3848,-81.0259,0,0,-0.51318,15.8975,13.8457,16.9229,
-44.3589,-14.1023,-98.2051,22.8206,54.1028,24.8718,-197.6921,-80.2563,-2.8206,0.76929,-0.76929,17.6926,13.0769,18.2053,
-38.9744,-12.3076,-92.3076,23.0771,56.9233,26.6665,-196.4102,-77.9487,-4.6152,0,0,12.3076,13.3335,18.4614,
-36.4102,-10.2561,-90.2563,23.0769,62.5642,34.8718,-192.3076,-73.8459,-1.0256,-2.5637,1.0256,10.2566,17.4363,18.4617,
-37.9487,-8.2051,-92.3079,23.0767,62.0513,37.9487,-194.3591,-71.7949,-0.5127,-7.1797,0.5127,9.7437,17.436,18.4614,
-38.718,-12.0515,-92.0513,20.7693,56.1541,27.4358,-195.6411,-72.5642,-0.25659,-4.8718,0.25659,6.4104,15.6409,18.2053,
-38.2051,-11.0256,-92.5642,25.8972,51.0256,22.8206,-193.5898,-75.1282,-0.25659,-0.76929,0.25659,7.4358,15.1282,16.6667,
-38.2051,-1.282,-94.6152,23.3333,52.0515,31.0256,-187.4358,-71.5383,-1.282,-0.76929,0.76929,14.1028,16.1541,18.2053,
-39.4873,0,-96.9233,16.4102,53.333,28.7178,-183.5898,-70.7695,-2.0513,-6.1538,0,11.2817,15.3843,17.4355,
-37.9485,-2.5637,-99.4871,22.5642,50.7693,23.0769,-183.0767,-73.3333,-1.0256,-3.5896,1.0256,7.6926,14.3591,14.3591,
-39.2307,-7.9487,-98.7178,19.7437,42.3076,22.3076,-182.3076,-74.6152,-1.7949,-3.8462,1.7949,11.0259,13.5898,14.1025,
-46.6665,-13.8459,-95.3845,17.4363,34.8718,14.3591,-181.5383,-72.8203,-1.0256,-9.7434,1.0256,9.7439,11.7952,17.949,
-47.949,-17.6924,-93.5898,26.9229,32.564,10,-180.2566,-74.6155,-0.25635,-7.436,0.25635,8.9741,15.1279,19.2305,
-45.3848,-18.2053,-93.0769,27.4358,31.0256,16.6667,-178.2051,-77.1794,-0.25659,-3.3333,0.25659,14.6155,14.6155,19.7434,
-49.4871,-18.7178,-94.6152,24.8721,31.0259,18.2051,-176.6665,-73.0769,-3.3335,-4.8716,3.3335,15.6411,8.4614,20.7695,
-54.6155,-23.8462,-94.1025,25.3845,34.1023,15.6409,-175.6411,-73.0769,-4.3591,-7.4358,4.3591,15.1282,9.9998,20.2566,
-49.7437,-22.0513,-93.8462,29.2307,36.4104,22.5642,-176.9231,-74.8718,-1.0256,-3.5896,1.0256,18.4617,12.3079,21.0256,
-47.436,-20.2566,-100.7693,24.3586,36.1536,24.3586,-179.231,-72.5642,0.76929,-2.3079,-0.76929,12.5637,10.5125,18.2048,
-50.7693,-19.4873,-102.5642,18.4614,38.4614,20,-175.8975,-71.2822,-0.51269,-1.0259,0.5127,4.6152,10.2563,15.3848,
-50.769,-15.8975,-101.5383,20.5132,37.436,23.5898,-172.8203,-79.4871,-3.0767,0,0,6.667,8.2051,13.3335,
-48.4617,-14.6155,-100.2563,20.2566,31.0256,25.8972,-176.1538,-86.9231,-0.76929,-1.7947,0.76929,6.9231,7.4358,14.1028,
-49.231,-14.3589,-102.5642,16.9229,24.6152,19.4873,-180,-86.6667,-0.51269,-1.0259,0.5127,2.564,9.7437,13.3335,
-44.1025,-12.8206,-100.5127,18.4617,29.2307,17.949,-173.3333,-85.6409,-1.0256,-0.51294,0.51294,7.6921,12.3079,13.3333,
-37.436,-8.2053,-91.7949,19.9998,31.7947,22.051,-165.6411,-86.6667,-1.0256,-2.0515,1.0256,11.7947,9.7434,14.3591,
-39.2307,-2.8203,-89.4873,20.2563,25.8975,22.8203,-164.3589,-86.4102,-2.8203,-0.25635,0.25635,8.4614,10.5127,12.564,
-43.3333,-8.4617,-94.6152,19.2307,21.282,18.2053,-163.3333,-89.4871,-1.7947,0.76929,-0.76929,2.3079,9.4871,13.5896,
-43.3333,-14.1023,-93.0769,25.8977,24.8718,17.6921,-160.2563,-91.0256,-0.76929,-3.3333,0.76929,3.3333,10.5129,16.1541,
-45.8977,-8.4619,-93.0771,27.9487,27.9487,22.8203,-157.6924,-88.4617,-1.7949,-5.8975,1.7949,7.9487,15.1279,15.1279,
-49.4873,-10,-96.6667,22.3076,22.8203,23.8462,-153.0769,-88.4617,-0.25635,-5.8975,0.25635,7.436,14.1025,12.0513,
-44.6152,-12.3074,-96.9229,26.6667,24.1028,24.1028,-148.7178,-88.7178,-1.0256,-3.5896,1.0256,4.6155,12.3079,13.3333,
-41.5383,-6.6667,-95.8972,26.6667,29.2307,30.7693,-146.6665,-87.6921,-4.6155,-3.0769,3.5901,3.0769,15.3845,16.9231,
-42.0513,-0.5127,-93.8462,28.2051,32.8203,36.9229,-144.6155,-83.0769,-0.5127,-5.6411,0.5127,5.6411,21.0259,20,
-43.0769,0,-95.8975,29.7437,31.7949,36.9229,-146.6667,-81.0256,0,-7.6924,-6.6665,2.0513,17.9487,18.9746,
-40.5129,0.5127,-96.9231,24.1025,31.2817,39.4873,-146.1541,-83.0769,-2.564,-0.5127,-4.1025,1.5386,14.8716,15.3843,
-39.7434,0.25635,-99.7434,20.7695,33.5898,34.1025,-147.9485,-89.4871,-5.3843,-0.25635,-4.3589,2.8208,10.5127,9.4873,
-38.4614,1.0256,-96.4102,18.9744,38.4617,27.6921,-148.2051,-87.1794,-1.0256,-3.0769,-3.5896,1.0256,12.3079,11.282,
-34.8721,1.0254,-91.7952,16.4102,35.8975,31.7944,-142.0515,-80.5129,0,-1.5386,-1.5386,0,15.3843,12.8203,
-34.8718,0.5127,-94.3591,16.9229,33.3335,33.3335,-136.4104,-84.1025,-6.1538,-0.5127,-4.6152,6.1538,10.2563,7.6924,
-34.8718,1.0256,-92.3076,21.0256,37.949,28.718,-132.8206,-85.1282,-2.5642,-1.0256,-3.0769,12.3079,11.282,12.3079,
-36.4104,0,-95.8975,24.1025,31.2817,29.2305,-135.3848,-80.5129,0,-6.1538,-2.0513,6.6665,12.8203,16.4102,
-39.2307,-1.2822,-101.282,23.8462,21.7949,33.0767,-133.0769,-76.6667,0.76904,-4.3589,-0.76904,3.3335,13.5898,13.5898,
-41.5386,-3.5898,-97.9487,23.5898,20.5127,27.6924,-132.3079,-81.5386,0.5127,-4.6152,0,0,14.8716,12.8203,
-37.6924,-0.25635,-93.0769,30,30.5127,33.0767,-131.5386,-77.1794,-0.25635,-7.9487,1.2822,0.25635,16.6665,15.6411,
-35.8975,1.0259,-96.4102,25.6411,34.8721,40,-125.1282,-74.8718,-1.5386,-8.2051,-0.51269,0.5127,16.4102,13.8462,
-33.3333,3.0771,-93.8459,22.0513,34.8721,38.9746,-117.4358,-88.2051,0,-2.564,0,0,17.9487,13.3335,
-31.2822,1.0256,-89.231,22.051,34.8713,36.4099,-117.949,-103.0771,-1.5388,-1.0256,1.5383,-2.0515,17.4358,16.9231,
-30.7693,0.51294,-88.2053,25.6409,29.2307,32.3074,-118.9744,-106.6667,-2.5642,-1.5388,0.51294,-0.51294,16.4099,16.9231,
-34.6155,-0.76904,-92.0513,26.9229,20.2563,24.3589,-119.7437,-104.8718,0.76904,-1.7949,-5.3848,1.2822,16.1538,11.5386,
-36.6667,-5.8975,-92.5642,22.3076,19.231,20.2563,-121.7949,-104.8718,2.8203,-2.8203,-6.4102,4.8716,16.6665,14.1025,
-34.6155,-7.9487,-93.0771,25.3843,21.7949,25.3843,-119.231,-104.8721,0.25635,-0.76953,-0.25635,10.5127,17.6924,16.1538,
-34.8718,-10.769,-98.9744,24.1025,14.8716,27.6924,-117.4358,-104.6155,-1.0254,-0.5127,0.5127,8.7178,15.3848,12.3076,
-37.1794,-13.0769,-100.2563,18.2053,9.9998,23.8459,-118.2051,-101.7949,-0.25659,-5.3845,0.25659,6.9231,13.0769,13.5896,
-37.1794,-11.0259,-100.7693,22.8203,16.1538,25.3848,-117.6924,-100.7693,-2.8203,-5.8975,2.8203,10.5127,14.1025,15.6411,
-36.9231,-10.769,-100.5127,23.5898,19.4873,26.1538,-114.8718,-103.0769,-1.5386,-4.1025,1.5386,8.7178,16.4102,13.3335,
-37.1794,-8.9741,-98.7178,21.2822,15.1284,23.8462,-114.6152,-97.1794,0.25635,-7.9487,-0.25635,3.8462,14.6152,14.1025,
-36.1538,-4.3589,-99.2307,24.8716,13.0767,25.3848,-114.6155,-92.0513,-1.2822,-13.5898,1.2822,3.8462,14.6152,19.231,
-39.4873,-4.1025,-98.4617,25.6411,14.3589,29.7437,-113.3335,-95.8975,-0.5127,-10.2563,1.0254,0.5127,17.9487,16.9229,
-39.7434,-4.3589,-94.6152,30.5127,15.6411,35.1284,-111.0256,-92.0513,3.3335,-3.3335,1.7949,-1.7949,21.7949,14.6152,
-39.4873,-7.6924,-94.8718,27.6924,8.2051,31.7949,-113.3335,-90.2566,2.0513,-7.6924,1.5386,-1.5386,17.4355,14.3589,
-38.4617,-6.1541,-93.8462,24.1023,8.2048,29.7434,-114.3591,-92.3079,2.5642,-10.7693,1.0256,-1.0256,15.3845,18.4617,
-40.7695,-3.3337,-89.4873,25.3845,12.051,30.5125,-108.4617,-94.1028,7.4358,-6.9231,0.76929,-0.76929,20.7693,20.2561,
-42.3076,-8.4612,-87.9485,26.9231,3.3337,28.9744,-101.7947,-94.1023,7.4363,-5.8972,-1.282,1.282,23.8464,20.7693,
-37.9487,-9.231,-94.8718,30.2563,1.5386,29.7437,-98.9744,-92.8206,4.6152,-6.6665,-1.5386,2.0513,21.0254,22.564,
-39.2307,-13.0767,-98.2048,26.4106,3.8462,26.4106,-96.1536,-94.6152,5.3848,-6.4102,-1.7949,1.7949,19.7437,20.7695,
-37.436,-11.7947,-90.7693,26.6667,3.0769,24.1028,-93.3333,-91.7949,8.2053,-5.6409,-3.0769,8.2053,24.6155,21.5383,
-33.8462,-4.6155,-92.3076,26.1541,6.1541,28.718,-96.4102,-86.6667,3.5896,-6.6667,-3.5896,11.7947,23.0769,19.4871,
-36.1538,-8.9746,-95.1282,19.7437,8.9741,29.4873,-97.1794,-89.4873,1.7949,-6.9233,-1.7949,9.4873,17.1797,16.6665,
-38.4617,-16.4104,-94.3591,23.5896,5.1282,21.0256,-94.3591,-90.7695,1.0256,-11.7952,-1.0256,7.6921,17.4358,16.9226,
-35.6409,-13.0767,-96.1536,26.4106,3.3335,22.3081,-93.5896,-87.4358,-1.7949,-13.5894,1.7949,4.3594,21.2822,18.7183,
-33.8462,-4.6157,-92.8206,26.6665,7.6924,36.4102,-90.2566,-87.1797,-0.5127,-9.231,0.5127,4.1025,21.0254,18.9741,
-34.6152,-0.76929,-84.3589,30.5129,9.4871,45.8977,-86.9231,-81.7949,0.76929,-8.4617,-1.7947,6.9231,20.2566,19.7439,
-35.3845,-5.1284,-83.5898,28.7178,7.1797,41.0259,-85.1282,-75.8975,-1.0259,-10.2563,1.0259,6.1538,21.5386,21.0259,
-34.3589,-6.1541,-87.1794,27.6921,9.2307,34.8718,-84.6155,-77.9487,-3.5896,-9.7434,3.5896,3.5896,20.0002,18.9744,
-35.6409,-5.3848,-87.9487,25.3848,12.0513,32.564,-83.8462,-81.282,-1.7949,-11.0254,3.8462,1.7949,18.7183,18.2051,
-39.2307,-7.9487,-86.9231,22.8203,5.8975,26.9229,-84.8718,-79.2307,-0.76904,-15.6411,1.2822,0.76904,18.7178,15.6411,
-35.3845,-3.0769,-85.1282,28.2053,5.6409,29.2307,-82.0513,-71.282,2.5642,-9.7434,-2.5642,9.7434,21.0256,19.4871,
-34.1025,0.76929,-92.0513,23.3333,2.3079,32.051,-82.8206,-76.1538,-0.76929,-12.0515,-10.0002,10.5129,17.1794,17.6921,
-32.8206,3.0767,-94.3591,24.6152,0,29.2305,-82.5642,-78.9744,0,-16.9233,-6.667,7.1792,17.4355,12.8203,
-35.3845,-1.0256,-89.2307,26.6667,-2.5642,20.5129,-78.4614,-75.8972,7.6926,-11.282,1.0256,9.7439,24.1028,12.3079,
-39.7437,-10.5129,-86.9231,27.4358,-12.5642,17.1794,-76.6667,-73.0769,12.5642,-8.4617,8.4617,8.9744,25.3845,12.051,
-37.6924,-10,-85.3845,38.718,-14.6155,17.1794,-75.6411,-67.9487,16.6667,-8.9744,16.1541,8.9744,23.8459,18.718,
-40.2566,-12.0515,-86.4104,34.6155,-12.5642,6.9231,-77.6924,-66.4104,16.1536,-6.9231,8.9744,11.5383,22.8206,22.8206,
-38.2053,-14.1028,-85.8975,33.0769,-7.4358,13.0769,-73.5898,-62.3079,12.5642,-1.282,1.282,13.5896,23.8459,20.2561,
-30.7693,-6.1541,-83.0769,42.051,-1.5383,28.0769,-62.5642,-58.9744,10.7693,-4.6155,1.5383,15.3845,27.1794,24.1023,
-30.2563,-2.5642,-81.0256,41.0256,-4.1023,34.3591,-60.5127,-56.9231,13.3333,-11.282,2.5642,12.3079,26.6667,27.6921,
-28.9744,-6.4102,-81.7947,43.3335,-4.3589,36.1538,-63.8459,-51.5383,15.1284,-7.9487,4.3589,10.5127,26.4102,26.9233,
-28.9744,-10,-84.3589,41.7952,-1.282,35.1282,-63.8459,-53.5896,4.8718,-10,1.282,7.949,22.3079,21.282,
-25.3848,-4.3589,-78.2053,37.1792,3.333,33.5898,-58.718,-49.4873,1.7949,-10.0002,-1.7949,7.9487,19.2305,17.6924,
-24.8718,-2.3076,-78.718,30,5.3848,33.0771,-59.2307,-34.4873,6.9233,-7.436,-7.436,2.3076,19.7437,15.1284,
-25.8975,-0.76929,-86.4102,24.8718,4.8718,38.2053,-60.769,-19.4873,7.949,-8.9744,-11.5383,0.76929,18.2053,13.5896,
-27.436,5.3845,-93.0769,22.8206,-0.76929,35.6409,-62.8206,-4.4873,-6.4104,-19.2307,-16.1541,3.8459,7.9485,3.8459,
-24.6155,11.282,-84.6155,25.1282,1.0256,32.3074,-60.5129,1.5383,-11.7952,-23.0771,-13.3333,1.0256,5.1282,-1.0256,
-23.5898,13.8459,-76.9231,28.718,4.6155,38.9744,-56.4102,9.2307,-4.6155,-21.5386,-8.2053,-6.1541,11.282,7.1794,
-23.8462,14.6152,-82.8206,23.3335,1.7949,44.8716,-59.2307,24.2307,-1.7949,-21.7949,-10,-5.8975,7.9487,7.9487,
-22.3074,12.5642,-83.8459,19.7439,4.3591,44.8718,-61.282,34.1028,-7.9485,-23.3333,-16.1536,-0.76929,2.8206,0.76929,
-24.8716,10.5127,-83.3333,26.4102,6.4102,46.4102,-61.282,36.1538,-15.1284,-26.9231,-20.2563,1.7949,2.3076,-1.7949,
-24.8718,11.0259,-87.4358,25.3848,0.25635,50.5127,-62.8203,47.436,-12.564,-26.9231,-17.1792,-0.25635,3.3335,1.2822,
-13.333,20.5132,-84.1025,28.7183,3.0771,54.3589,-58.9741,60,-7.6924,-22.564,-14.3589,-1.5386,6.667,1.5386,
-8.4617,26.4104,-78.718,32.051,16.1536,60.2566,-52.0513,61.282,-10.5129,-24.3591,-13.5896,0.25659,6.9231,-0.25659,
-13.333,22.5645,-77.4358,26.667,24.1025,61.0259,-47.6921,64.1025,-11.2817,-28.2051,-13.333,0,4.6157,0,
-6.1536,29.7439,-75.8975,33.8464,29.2307,63.5896,-43.0769,78.9744,-6.1536,-21.0256,-12.8206,-2.5642,9.2307,2.5642,
-0.76904,36.6665,-78.718,32.564,28.9746,74.6152,-42.3076,87.9487,-7.436,-17.1792,-13.0767,-2.8203,8.4614,0.76904,
0.25659,43.8459,-76.1538,24.8718,32.5642,83.3333,-42.8206,97.1794,-10.5129,-21.7947,-11.0256,-0.25659,2.8206,-1.7947,
5.8975,55.1279,-72.5642,23.8462,39.2305,81.2817,-41.7949,112.1794,-13.0771,-21.7949,-14.1025,-0.25635,0.25635,-3.3335,
11.5383,58.718,-72.5642,23.3333,43.3333,74.6155,-34.6155,125.3845,-10.0002,-18.718,-16.6667,-2.3079,2.3079,-5.8977,
15.3848,61.5386,-70.2563,29.231,53.8462,75.8975,-27.1794,128.2051,-5.1284,-17.436,-11.2822,-3.0771,3.0771,-5.1284,
16.1541,66.9231,-68.9744,28.4617,57.1794,81.7952,-26.9231,128.9744,-7.9485,-20.2561,-13.0769,-2.3079,2.3079,-4.3591,
19.4873,74.8721,-66.6665,29.7437,56.9233,82.5645,-25.1282,131.7949,-9.7437,-22.0513,-18.4614,-1.5386,1.5386,-4.1025,
24.3591,84.8718,-60.2563,39.2307,64.8718,86.9231,-21.7947,139.2307,-6.9231,-23.3333,-17.1794,-0.76929,0.76929,-0.76929,
24.3589,90.5127,-58.2051,34.1025,66.4102,92.564,-22.3076,147.9487,-7.9487,-24.3589,-17.6924,1.2822,-3.8462,-1.2822,
33.3335,98.4614,-59.4873,34.3589,67.1797,96.4102,-18.9744,158.4614,-9.7437,-22.0513,-22.0513,1.5386,-5.1284,-1.5386,
40,102.564,-57.9487,42.564,76.9233,100,-13.3333,157.9487,-6.6665,-22.0513,-18.9744,-3.0767,1.5386,-1.5386,
35.1282,98.2053,-57.1794,39.2307,74.1028,103.3333,-14.6155,153.0769,-5.8972,-21.7949,-12.5642,-6.4104,2.8206,-2.8206,
32.8206,98.4617,-60.5127,34.3591,63.5896,104.6155,-17.4358,162.0515,-6.1536,-20,-14.8718,-6.1536,0.51294,-0.51294,
31.282,96.4104,-64.6155,32.3079,64.1023,96.4104,-18.4617,167.6921,-4.1028,-18.9744,-21.0256,-8.718,0.51294,-0.51294,
24.3591,88.9744,-67.9487,33.5896,67.9485,93.0769,-18.718,161.7947,-7.949,-15.1282,-19.231,-5.3845,3.3333,-3.3333,
16.4104,76.9231,-70.7693,28.2053,58.4617,90.2566,-19.9998,158.9744,-14.3591,-13.3333,-15.3845,-1.0256,1.0256,-4.6155,
17.6921,71.0256,-66.4104,25.8972,49.4871,78.7175,-20.2566,165.3845,-3.3337,-14.6155,-13.5901,0.76929,-0.76929,-0.76929,
11.0256,63.3333,-73.5898,26.9231,42.3074,65.3845,-26.4104,157.6921,-0.76929,-17.6926,-16.1541,0.76929,-3.8464,-5.8977,
1.2822,50.5127,-77.1794,25.8975,31.0259,58.2051,-23.3333,155.1284,-3.8462,-11.5386,-10,2.8208,-1.2822,-4.8716,
-3.5896,35.5127,-73.3333,28.718,16.0259,53.3333,-20.5127,170.1284,0.51294,-11.7947,-6.1536,-0.51294,2.5642,-2.5642,
-6.9229,25.3848,-70.5127,31.5386,7.9487,48.9746,-22.8206,172.564,1.2822,-17.1792,-8.9741,-1.2822,3.8462,-4.3589,
-8.718,29.7434,-64.6155,32.3079,14.8718,41.5383,-17.9487,157.564,-2.5642,-14.8718,-8.718,1.0256,8.718,-1.0256,
-11.7949,26.1538,-66.6665,31.2822,9.231,30.2563,-17.4355,157.9487,-0.51269,-12.8203,-8.2051,0,8.2051,0,
-16.4104,15.8972,-74.8718,26.1541,-1.5383,27.6921,-17.9485,169.2307,6.1541,-11.282,-9.2307,2.0515,1.5383,-3.0769,
-18.718,16.6667,-74.6152,26.4104,-3.3333,33.5896,-13.5896,169.4871,4.3591,-7.4358,-8.9744,3.3333,3.8464,-4.3591,
-19.7437,19.7437,-72.0513,27.9487,-0.25635,34.6152,-14.1025,168.9746,4.3589,-7.9487,-8.9741,0.25635,8.9746,-0.25635,
-22.3076,9.4873,-75.1282,24.3589,-3.8462,22.3076,-22.8206,167.9487,5.8975,-11.5386,-9.4873,1.2822,7.9487,-1.2822,
-25.1282,-1.0256,-74.8718,30.7693,-9.2307,15.3845,-22.5642,168.718,6.6667,-5.6409,-6.1541,10.2566,9.7434,1.0256,
-33.0769,-10.0002,-76.6667,32.051,-21.2822,15.6409,-19.231,170.5129,11.0256,-1.282,-4.3591,7.9485,13.0769,1.282,
-35.8977,-11.282,-80.5129,27.6921,-28.718,15.8972,-18.9746,176.4099,13.8459,-1.0256,-2.0515,5.1282,15.8972,1.0256,
-36.4104,-12.3079,-84.1028,24.1023,-28.718,10.2561,-21.0259,171.7947,9.7434,-5.1282,-1.0256,4.1023,12.8206,1.0256,
-35.8975,-20.5129,-81.0256,27.1797,-29.2307,18.4614,-21.0256,166.6665,8.7178,-6.6665,0,3.5898,10.2563,0,
-32.564,-18.2051,-76.1538,36.1541,-28.4614,33.4614,-21.282,171.0256,9.4871,-3.3333,-1.7947,8.4617,11.0256,1.7947,
-35.3845,-17.436,-77.436,31.7949,-29.2307,34.3589,-21.5386,167.1797,7.6924,-1.5386,-3.0771,9.231,11.7949,1.5386,
-37.9487,-24.6155,-77.9487,27.6921,-32.8206,27.6921,-20.5129,164.6155,9.2307,-3.0769,1.0256,7.6921,12.8206,-1.0256,
-37.4358,-23.5896,-78.9741,32.8208,-37.9485,31.2822,-23.0767,170.7695,9.231,-0.51269,0,8.2056,9.7437,0,
-41.7949,-21.7949,-80.7693,28.9746,-44.3589,31.0259,-26.4102,173.5898,5.3848,1.2822,-5.3848,5.3848,5.3848,-1.2822,
-44.3591,-27.436,-80.7693,27.9487,-45.3848,25.3848,-23.8462,167.436,7.436,0.25635,-5.8975,6.9229,7.9487,-0.25635,
-43.8459,-37.1794,-82.3076,29.4875,-45.8972,20.2566,-21.7947,160.7693,8.9744,-2.8206,-2.8206,8.9744,12.0515,2.8206,
-44.1025,-35.8975,-85.1282,29.2307,-48.2051,18.4617,-23.0769,165.6409,7.1794,-4.6155,-3.0769,3.5896,10.7693,3.0769,
-45.8975,-25.8975,-84.3589,27.949,-46.9231,22.3079,-23.8462,172.0515,8.4617,1.282,-4.8718,3.8464,8.9744,-1.282,
-47.4358,-29.4871,-76.1538,22.3079,-46.9231,25.3845,-20.2563,164.3591,11.5383,5.8977,-3.8459,3.8459,9.4871,-3.8459,
-46.4102,-33.5896,-70.5127,25.8975,-48.4614,28.4614,-14.6152,157.6924,8.9746,2.3076,-3.8462,1.2822,9.4873,-1.2822,
-41.2822,-22.8206,-68.4617,32.564,-43.8462,35.1279,-7.9487,172.6924,10,-0.25635,-3.8462,4.3589,11.5386,0.25635,
-36.6667,-17.1797,-64.8718,33.0767,-38.2053,34.1025,-2.3076,181.2817,13.0767,-0.25635,-1.2822,5.8975,14.6152,0.25635,
-40.2563,-28.4614,-68.4614,32.0515,-39.7437,21.282,-3.3333,166.2817,8.9744,-3.8459,-0.76929,2.8206,11.0256,0.76929,
-44.3591,-34.6155,-73.5898,26.9231,-46.4104,16.6667,-6.4104,161.282,8.4617,-5.3845,-1.282,5.3845,7.4358,1.282,
-43.0769,-28.2051,-75.3845,27.6924,-46.6665,30.2563,-6.6665,176.282,9.7437,-4.1025,-0.5127,10.2563,10.2563,0.5127,
-40.5129,-26.6667,-74.8721,30.7693,-41.5386,35.3845,-1.5388,172.8206,8.718,-3.5901,1.0256,11.282,14.8718,-1.0256,
-38.9746,-34.8721,-73.3335,30.769,-45.1284,20.3845,0,157.9487,10.2563,-5.1284,0,8.7178,14.8716,0,
-41.282,-38.2051,-74.1025,32.564,-48.9744,5.3845,-3.3335,159.7437,11.0259,-7.9487,0.25635,7.436,14.1025,-0.25635,
-47.9487,-37.1794,-75.1282,31.0256,-47.4358,3.3333,-3.3333,157.1794,8.9744,-7.9485,3.3333,4.3591,14.1028,-3.3333,
-45.8975,-32.564,-72.564,30.5129,-44.3589,14.6155,-2.8206,153.0769,8.9744,-2.3079,1.282,2.8206,13.5896,-1.282,
-39.7434,-31.5383,-69.4871,28.4619,-39.7434,23.8462,-1.2817,159.231,10,-0.76904,0.25635,-0.25635,14.6157,0.76953,
-40,-38.9744,-69.2307,29.231,-40.5129,18.9741,0,163.5898,11.2822,-6.6665,2.0513,-2.564,14.8716,0,
-38.9744,-33.3335,-67.6924,37.9485,-41.0256,11.282,0.51294,162.051,10.2561,-7.6921,1.5383,-0.51294,13.8459,-0.51294,
-38.4614,-26.1538,-66.6665,34.3589,-41.5383,12.3076,1.5386,154.3589,6.6665,-3.5898,-0.5127,0.51269,14.3589,-1.5386,
-42.8203,-32.051,-72.564,30.5132,-47.9485,13.5898,3.3335,153.0771,4.8721,-2.3076,-0.25635,0.25635,14.6157,-2.3076,
-41.7949,-37.1794,-77.6924,33.5898,-55.1282,10.5127,0.25635,161.7949,7.436,-3.3335,-0.25635,5.3848,13.5898,-3.3335,
-38.2051,-37.1794,-74.6155,30,-52.0513,7.436,1.2822,165.3848,8.4614,-3.8462,-1.2822,11.0259,13.0771,-3.3335,
-39.4873,-33.8462,-72.3076,27.6921,-48.2051,6.6667,6.1541,164.1028,3.5896,-3.5896,-4.6155,12.3079,9.7434,-4.1028,
-41.2822,-32.0513,-73.0769,25.8975,-56.6667,10,6.4102,162.8203,5.3848,-6.9233,-7.436,12.564,8.4614,-5.3848,
-40,-29.2307,-69.7437,26.1541,-55.3845,15.3845,6.6667,156.9231,6.6667,-11.282,-8.2053,9.7434,8.718,-6.6667,
-40.5129,-22.5642,-68.2051,29.2307,-40.3845,14.8718,9.2307,158.4617,1.5383,-10.7693,-6.1541,6.1541,8.2053,-1.5383,
-42.564,-24.6152,-70.769,27.1794,-30.2563,5.6414,8.718,167.6926,-0.51294,-11.282,-4.6155,2.0515,9.7439,0.51294,
-41.282,-35.1279,-69.9998,30.5129,-36.1538,0.76929,10.5129,164.8718,7.4363,-13.5896,1.282,-0.76929,16.1541,-4.3586,
-43.8462,-43.8462,-71.0256,32.0515,-43.3333,-0.76929,9.4871,149.8718,13.0769,-13.0769,9.4871,0.76929,16.1541,-5.8972,
-47.1794,-38.9744,-70.2563,32.3076,-48.2051,-3.0767,2.564,151.2822,13.3335,-4.1025,11.7949,4.6152,14.8721,-2.564,
-48.4614,-37.1794,-69.4871,28.4619,-49.9998,0.25635,-0.25635,164.3589,11.5386,-1.2817,1.2822,4.8721,14.6157,-0.76904,
-49.2307,-44.1025,-73.8462,20.5129,-50.7693,3.5896,3.0769,159.9998,6.1541,-10.7693,-9.2307,2.0515,9.2307,-2.0515,
-43.0769,-33.8462,-73.8462,25.6409,-48.2051,1.0256,6.1541,156.9231,8.2053,-11.7947,-4.1028,4.6155,8.718,-1.0256,
-43.3335,-33.5898,-70,26.4102,-50.5129,-4.8721,8.4614,159.7437,11.5386,-7.436,1.7949,4.8716,12.0513,-1.7949,
-43.5896,-43.5896,-62.564,27.1797,-53.8459,-4.1025,12.3081,153.8462,10.7695,-6.1538,0,8.2051,14.8721,0,
-42.051,-42.564,-63.0767,29.7437,-54.3589,-3.0767,11.7949,146.1538,8.2056,-8.7178,-2.0513,11.7949,12.3081,2.0513,
-43.3333,-36.6667,-64.3589,25.8977,-52.564,-4.8718,10.5129,152.0515,11.0256,-9.9998,-0.76929,5.8977,10.0002,0.76929,
-44.6152,-36.4102,-60,31.2822,-48.7178,-3.0767,9.7437,162.564,9.7437,-9.7437,0.51269,5.6411,11.7949,-0.5127,
-47.9487,-41.7949,-56.6667,34.6155,-52.0513,-5.3845,8.9744,155.1282,4.8718,-7.9485,0.76929,10.5129,13.0769,-0.76929,
-48.2051,-41.0256,-56.9231,30.2566,-55.3848,-9.7434,10.7693,143.0769,7.6921,-7.1794,0.51294,9.2307,13.3333,-0.51294,
-48.718,-36.9233,-63.5898,28.7178,-51.7949,-2.0513,10.2563,146.1538,7.1792,-8.2051,-2.5645,7.6924,11.2817,2.0513,
-54.1025,-46.9231,-72.0513,26.9231,-56.6665,-0.76929,6.9231,145.3845,0.76929,-12.051,-5.8972,4.3591,8.4617,1.282,
-52.564,-48.4614,-67.9485,31.5388,-55.6409,-1.282,11.5388,142.8206,5.3845,-8.9744,-1.282,3.3333,12.5642,1.282,
-51.5386,-40.2566,-67.436,27.4355,-52.5642,-2.3076,12.564,139.2305,7.9487,-7.436,-2.3076,2.3076,12.564,2.3076,
-48.9744,-37.1794,-65.8975,24.8718,-54.1025,-3.3333,11.0256,138.718,5.8977,-7.4358,-5.3845,4.3591,11.0256,3.3333,
-42.5642,-38.4617,-60.0002,32.3074,-51.7949,1.0256,13.3333,139.9998,7.6921,-7.1794,-4.1028,4.6155,11.282,-1.0256,
-39.2307,-35.6411,-54.1025,32.0513,-47.4358,3.8462,16.1538,136.6665,13.5898,-4.3589,-0.25635,0.25635,13.0771,-2.3076,
-42.3076,-31.0256,-57.1794,29.4873,-47.9487,-0.76904,20.2563,130.5127,13.0771,-2.3076,0.25635,-0.25635,12.564,0.25635,
-43.3333,-28.9744,-65.8975,26.4104,-45.3845,-0.76929,24.3591,129.4871,9.4871,-3.8459,0.25659,5.8977,8.9744,-0.25659,
-43.3335,-31.0256,-66.9231,20.2563,-46.4104,0.25635,22.8203,131.5386,7.436,-10.5127,-0.25635,4.3589,4.8716,-0.25635,
-47.1794,-31.282,-65.1282,22.564,-55.3845,-7.6924,18.9741,123.0771,5.1284,-13.3335,2.0513,-2.0513,3.5898,2.0513,
-53.5898,-34.1025,-67.9487,22.3079,-57.6924,-12.5642,19.2307,109.4871,2.8206,-11.5383,0.25659,0.25659,3.3333,-0.25659,
-48.718,-34.8718,-64.6155,27.6921,-50.7693,-6.6667,22.5642,109.7434,5.1282,-9.7434,-3.5896,6.1541,5.6409,3.5896,
-45.1282,-39.4873,-59.4873,35.3848,-50.2563,-9.231,20,110.2563,11.2822,-9.231,-1.5386,1.5386,10.2563,9.231,
-51.7947,-46.6665,-66.6665,27.1797,-57.4358,-17.4358,16.9233,96.9233,10.2563,-14.3589,4.1025,-2.564,9.231,2.564,
-50.7693,-41.5386,-70.7693,22.564,-54.8718,-12.3076,21.5386,89.7437,8.7178,-18.9744,8.2051,0,7.1797,0,
-47.6924,-40.0002,-66.1541,23.5896,-48.718,-13.8464,24.1023,87.1794,10.2561,-17.436,7.1794,-4.6155,9.2307,4.6155,
-45.3845,-37.1794,-61.7949,28.9744,-45.3845,-17.6924,25.3845,82.3079,11.5383,-8.9744,3.3333,-3.3333,12.0515,8.9744,
-45.6409,-31.282,-64.1025,27.1797,-46.1538,-14.3589,24.6157,71.7949,8.7183,-10.2563,-1.5386,1.5386,9.231,4.6157,
-47.1794,-36.9231,-63.5898,19.4873,-48.718,-10.2563,22.0513,62.564,5.1284,-15.8975,0.5127,0,5.1284,0,
-49.7437,-41.0256,-64.1025,18.9746,-47.1794,-13.8462,17.436,57.436,0.5127,-14.3589,1.5386,1.0259,1.0259,-0.51269,
-49.4873,-32.0513,-65.8975,19.7437,-41.282,-17.1797,19.231,49.4873,2.3076,-13.0771,-0.25635,4.3589,3.8462,0.25635,
-47.1797,-29.231,-69.231,18.4617,-42.0513,-18.4617,21.0256,36.9231,3.5896,-14.8718,0.51294,-0.51294,6.1536,2.051,
-45.3848,-35.6411,-71.0256,22.8206,-48.9744,-18.2053,20.7693,34.1023,2.8206,-11.5383,3.3333,-2.8206,4.3591,3.8459,
-50.7693,-40,-73.3333,19.4873,-50.7693,-17.9487,19.4873,29.7437,0.5127,-14.8716,0,1.0259,1.0259,0,
-52.0515,-32.0515,-74.6155,19.7437,-42.3079,-13.5898,21.7949,27.9487,0.25635,-18.2051,-0.25635,5.3843,2.3076,1.2817,
-50.7693,-35.3845,-76.4102,18.4614,-44.6152,-15.8975,19.4873,26.1538,0,-17.9487,0,0.51269,3.0771,3.0771,
-49.7437,-42.0513,-73.3333,17.436,-45.6409,-17.9487,16.9233,20,1.0259,-15.3848,0,0.5127,3.0771,0,
-46.4104,-33.5898,-68.9746,19.7437,-38.718,-12.0513,21.7949,20.2563,0.25635,-14.6157,-0.25635,3.333,1.2817,0.76904,
-43.0767,-26.6665,-66.1536,18.9746,-34.8716,-8.7178,28.2051,17.436,1.0259,-14.8716,0,0,4.1025,6.1538,
-42.8203,-27.4355,-66.9229,20.2563,-31.5383,-10,28.4614,8.9746,2.3076,-15.1279,0.25635,-0.25635,7.9487,5.3848,
-46.1538,-30.7693,-70.7693,16.9231,-33.3335,-10.2566,28.2048,6.6667,1.0256,-15.8977,-1.0256,2.5642,4.6155,2.5642,
-43.5896,-30.2563,-67.6924,17.436,-40.5127,-11.2822,33.3335,10.2563,3.5898,-13.8462,2.0513,-2.0513,2.0513,3.0771,
-37.4358,-25.6411,-63.5898,24.6155,-37.4358,-8.718,34.8718,9.2307,4.6155,-13.3333,2.5642,-2.5642,4.1028,4.6155,
-38.4614,-24.1025,-65.1282,18.9746,-34.3589,-6.6665,32.3076,4.6152,0.5127,-13.8462,-0.51269,4.6152,3.5898,3.5898,
-37.9487,-22.0513,-65.1282,16.4102,-37.436,-8.7183,32.3076,6.6665,0,-12.3076,0,4.6152,2.0513,5.6411,
-37.1794,-20.2566,-67.436,21.282,-37.1794,-9.4871,33.5896,6.9231,1.7947,-15.1282,1.7947,-1.7947,5.3845,7.9485,
-39.231,-21.2822,-66.9231,21.2817,-37.6924,-6.4102,33.5898,2.8203,-0.25635,-19.7437,0.25635,0.25635,6.4102,7.9487,
-37.436,-15.8975,-65.6411,25.1279,-37.9487,-8.7183,33.8462,4.6152,-0.51269,-13.8462,0.5127,5.1279,4.6152,10.2563,
-38.718,-14.6155,-66.4102,22.3079,-40.2563,-23.7183,33.5896,6.9231,-0.25659,-10.5129,0.25659,0.76929,2.3079,10.5129,
-36.1538,-14.6155,-61.7949,22.3079,-39.2307,-32.0513,40.2566,6.4104,-0.76929,-14.1028,0.76929,2.3079,3.3333,15.6409,
-30.0002,-13.0771,-57.1797,24.8716,-31.5386,-27.436,46.4102,0.25635,-0.25635,-14.6157,1.7949,6.4102,3.8462,18.7178,
-27.4358,-11.5383,-49.4871,26.4104,-26.9231,-29.4871,49.4871,-0.76929,5.8977,-10.5129,5.3845,0.76929,7.949,15.1282,
-30.5129,-8.4617,-47.9487,29.9998,-30,-29.4873,50.5129,3.3333,5.8972,-10.5129,3.8459,-3.3333,9.9998,13.5896,
-31.282,-7.1794,-53.8462,25.1282,-30.2563,-21.0256,48.718,2.5642,3.0769,-9.7434,1.0256,-1.0256,7.1794,13.8459,
-24.1025,-3.5898,-53.8462,27.6924,-26.6667,-16.4102,46.6665,0,7.1797,-6.1538,5.6411,0,8.7178,12.8203,
-22.3076,-0.25659,-53.0769,33.0769,-25.8975,-21.7949,47.4358,-0.25659,10.5129,-1.7947,8.9744,0.25659,11.5383,16.1541,
-27.6924,-4.1025,-58.9744,25.6411,-31.282,-28.718,49.7437,-3.0771,6.6665,-3.0771,4.6152,3.0771,7.1797,16.4102,
-28.4614,-4.3591,-59.7434,23.3333,-35.1282,-25.8975,53.0769,-4.3591,4.8718,-2.8206,2.8206,7.949,5.8977,13.5896,
-30.7693,-6.667,-56.4104,19.4873,-37.9487,-27.1797,51.7949,-6.1538,4.1025,-2.0513,2.0513,6.6665,5.6411,13.333,
-30.0002,-10,-55.6411,21.2817,-36.1541,-27.436,48.4614,-7.436,2.3076,-1.7949,1.7949,3.333,4.8716,13.0767,
-25.6409,-8.2051,-54.8716,28.7183,-32.3076,-25.6409,49.7437,-12.3076,2.0513,-2.0513,6.667,4.1025,6.1538,11.7949,
-25.1284,-5.6414,-51.7949,30.7693,-31.7949,-29.231,52.3074,-11.7952,5.1282,-5.1282,10.2561,5.6409,10.7693,14.8718,
-30.7693,-8.718,-54.8718,29.7434,-34.8718,-35.8975,48.718,-3.5896,3.5896,-9.7434,5.6409,3.5896,11.7947,16.9231,
-30.2566,-12.3079,-52.8206,28.718,-32.3079,-30.2566,51.282,-3.0769,6.6667,-3.0769,7.6921,3.0769,14.3586,17.4358,
-32.3076,-15.8975,-54.3589,27.1797,-35.3845,-27.1794,52.8203,-12.8203,6.6665,-0.5127,8.7178,0.5127,8.2051,13.3335,
-32.8206,-11.2822,-57.9487,31.7949,-30.2566,-25.6411,51.7949,-9.7437,6.6665,-2.0513,8.7178,2.0513,9.7437,16.4102,
-30.5127,-8.9741,-57.6921,25.8975,-23.3333,-25.3845,48.9746,-7.9487,6.4102,-3.3335,5.8975,3.3335,12.0513,15.6411,
-31.0256,-13.5896,-56.1538,18.2053,-23.8459,-25.8972,46.9231,-17.1794,1.282,-0.25659,1.7947,0.25659,3.8459,5.3845,
-35.3845,-18.4617,-58.9744,16.9231,-28.2051,-28.718,47.1794,-22.5642,-1.0256,2.0515,2.5642,1.0256,2.0515,2.5642,
-36.1538,-16.1541,-61.7949,18.2053,-31.5386,-33.0769,44.3591,-20.7693,3.3333,-2.3079,2.3079,2.8206,3.3333,8.4617,
-26.667,-6.667,-60.0002,18.9741,-27.6924,-26.1538,43.0767,-17.436,4.6152,0,0,4.6152,0,10.769,
-23.8462,-8.9746,-58.2053,14.6152,-26.4102,-23.8462,46.4102,-20.2563,0.76904,5.8975,0.25635,2.3076,-0.25635,4.3589,
-28.4614,-13.5896,-57.1794,17.6926,-29.4871,-30,45.8977,-25.3845,-0.76929,4.3591,0.76929,2.8206,1.7952,4.3591,
-29.2307,-8.7178,-56.4102,21.0259,-31.7949,-28.718,46.1538,-23.5898,1.5386,-0.51269,2.564,5.6411,0.5127,11.7949,
-29.4873,-8.4617,-56.6667,20.7693,-35.6411,-28.9744,50.5129,-24.3591,0.76929,1.282,3.3333,4.8718,-0.76929,11.5383,
-33.3335,-13.8464,-55.8975,21.0256,-38.4617,-34.8718,50.7693,-28.718,-0.51294,4.1023,2.051,3.0769,0.51294,8.2048,
-35.6411,-15.6409,-53.5898,20.7693,-38.718,-33.5898,46.4104,-29.4873,0.25659,-0.25659,1.282,0.25659,0.76929,11.0256,
-30,-5.3848,-51.0256,25.3848,-30,-23.8462,46.4102,-27.4358,0.25635,-0.25635,1.2822,1.2822,3.3335,16.667,
-26.9231,-0.25659,-53.0769,21.7947,-24.3591,-14.1028,54.1028,-31.0256,-1.7947,1.282,0.25659,4.3591,2.3079,11.0256,
-24.8718,-0.76929,-51.0256,19.2307,-19.2307,-5.8972,62.8206,-34.6152,1.282,2.8206,0.76929,7.4358,-0.76929,10.5129,
-22.5645,5.6406,-51.7952,22.564,-15.3848,-10.7695,56.4102,-33.3335,0,0,-1.5386,4.1025,0.5127,15.3843,
-23.0769,4.6155,-50.7693,21.5383,-22.5642,-25.6409,48.718,-34.8718,1.5383,-1.5383,6.1536,-2.0515,8.718,12.8206,
-24.8718,-5.3845,-50,23.8459,-28.4617,-35.1282,53.5896,-37.6924,11.5383,0.76929,20.7693,-0.76929,12.5642,7.4358,
-35.1282,-12.5642,-58.718,15.1282,-36.1538,-37.1794,48.9744,-50,12.051,-1.7947,17.1794,1.7947,3.3333,1.7947,
-33.5898,-7.436,-53.5898,13.0771,-38.718,-29.4873,42.8203,-52.5642,6.9229,-1.2822,6.9229,4.8716,1.2822,8.9741,
-24.1028,-1.0256,-47.1794,23.5896,-29.7437,-18.4617,50.2561,-41.5386,2.051,-0.51294,0.51294,6.6667,2.051,12.8206,
-25.1284,0,-50.2566,20,-25.1284,-17.436,57.9487,-40.5129,0,-3.5898,0,7.1792,1.5381,8.7178,
-26.4104,-0.76929,-51.5386,19.7434,-33.0769,-19.7434,58.718,-47.436,0.76929,-5.8972,3.3333,4.8718,0.76929,13.5896,
-21.7949,-7.9487,-48.4617,27.436,-33.5898,-20.769,58.7178,-48.9744,1.7949,-1.7949,4.3589,6.4102,6.4102,19.231,
-21.5383,-9.7434,-45.6411,23.5896,-26.6667,-18.9744,61.0256,-45.1282,1.5383,-1.5383,2.5642,10.2566,10.7693,14.8718,
-24.3586,1.282,-45.3845,23.8464,-22.8206,-15.1282,61.7952,-44.8716,-1.282,-5.8972,2.3079,6.9231,7.4358,11.5383,
-26.1541,-1.0256,-46.667,25.1282,-25.6414,-19.4875,59.4871,-50.2566,2.5637,-3.0769,1.5383,1.0256,2.5637,13.3333,
-27.4358,-13.5898,-45.8972,20.2563,-35.6409,-23.8462,51.5386,-55.1282,4.8721,-0.25635,0.76953,1.2822,0.25635,14.1025,
-24.3591,-11.5388,-43.3335,21.7947,-35.6411,-17.1794,52.051,-55.6411,3.8459,-1.282,4.3586,1.282,8.9744,15.6409,
-20.2563,-5.8972,-42.3076,28.4617,-26.4102,-16.6667,60.7693,-55.6409,11.0256,-1.282,7.949,1.282,16.6667,19.2307,
-23.0769,-7.1797,-45.1282,27.1797,-27.6924,-22.0513,55.3848,-59.4871,13.3335,-2.0513,4.6152,2.0513,9.7437,18.4614,
-21.7947,-4.8718,-44.8716,20.7693,-33.5896,-15.1282,52.5642,-61.7947,5.8977,-1.282,3.8464,1.282,2.8206,15.6414,
-17.6924,-0.25635,-40.2566,21.7949,-33.0771,-10,62.3076,-59.7437,1.2817,-1.7949,5.3843,0.25635,4.8716,13.5894,
-17.436,-3.0771,-38.9744,27.1792,-30.7693,-14.3589,62.564,-50.2566,7.6924,-1.5386,6.6665,1.5386,6.6665,20.5127,
-20.2563,-6.4102,-41.282,26.4102,-32.0513,-17.1792,56.6665,-48.9744,10.5127,-0.25635,6.4102,0.25635,4.8721,20.769,
-20.5125,1.0256,-40.5127,28.718,-32.3076,-14.8718,59.4875,-58.4614,4.6155,-5.6409,6.1541,-1.0256,4.6155,9.7439,
-23.5901,1.5383,-38.9746,24.615,-36.4104,-16.9231,63.0769,-58.9746,3.0769,-13.3337,8.7175,-1.0256,1.0256,8.7175,
-22.0513,-1.5386,-36.9231,23.5898,-32.3079,-16.9233,63.5898,-52.3079,7.6924,-4.6157,14.3589,4.1025,1.5386,18.9741,
-22.3079,-6.9231,-42.3076,24.3591,-27.436,-19.7434,61.7947,-59.2307,2.8206,1.7947,13.5896,0.76929,-0.76929,14.6155,
-14.1025,-3.8462,-34.6155,30,-21.2822,-16.1538,71.0254,-55.6411,7.4355,-0.25635,19.7437,0.25635,5.8975,15.6406,
-11.7949,-1.5386,-31.7949,31.7949,-24.6155,-12.3076,71.2822,-50.7693,9.231,-2.564,18.9741,1.5386,9.231,17.436,
-15.8975,-4.6157,-38.9744,27.6924,-26.1541,-11.2822,65.6411,-56.9231,10.2563,0,14.8716,0,5.1279,15.8975,
-16.9233,-6.1538,-40,22.564,-24.1025,-9.231,64.1025,-63.0769,15.3848,-1.5386,14.8716,1.5386,1.5386,14.3589,
-11.5386,-2.3076,-35.6409,23.3335,-19.7437,-8.4614,66.9233,-59.2307,15.1284,-1.7949,18.2051,7.436,1.7949,15.1284,
-13.0769,-5.3845,-39.7434,20.7693,-23.3333,-16.6667,64.3591,-58.7178,8.9744,-0.76929,15.6414,2.8206,0.76929,8.4617,
-16.6667,-7.4358,-44.3589,24.3591,-30.5127,-19.2307,63.3333,-57.1794,11.5383,1.282,14.1028,-1.282,1.7952,7.949,
-22.5642,-10.2566,-47.1797,18.9744,-34.8718,-18.9744,63.0769,-56.9231,8.718,-1.0256,13.3333,5.6409,1.0256,11.282,
-21.7947,-7.949,-43.3333,13.5896,-31.0256,-16.6667,66.4104,-56.6667,6.4104,0.25659,13.0769,9.4871,-0.25659,11.5383,
-21.7949,-2.3076,-41.282,20.7695,-29.4871,-14.1025,66.4102,-56.6665,9.4873,1.7949,8.9746,4.3589,-1.7949,8.9746,
-21.7947,-0.25659,-39.7437,23.3333,-31.5386,-13.5896,64.8718,-57.1794,13.5896,0.25659,10.5129,4.8718,-0.76929,12.051,
-18.2051,1.7949,-41.282,20.2563,-27.436,-12.564,67.436,-55.1282,7.9487,-1.7949,12.0513,6.9229,-2.3076,13.5898,
-19.2307,5.3845,-44.8718,16.1536,-26.9231,-10.5129,68.9744,-54.6155,2.8206,-2.8206,7.4358,5.8972,-5.3845,9.4871,
-22.051,3.5896,-40.5127,17.4358,-31.7949,-9.7434,64.6155,-56.4102,7.6921,-3.0769,7.1794,3.0769,-5.1282,9.7439,
-21.7949,2.3076,-38.2051,24.3589,-27.4355,-10,58.7183,-58.2051,6.4102,-1.7949,9.4873,1.7949,-4.3589,12.0513,
-24.1028,1.5383,-41.0256,16.4104,-23.0769,-11.7947,58.9744,-63.5898,1.0256,-1.0256,8.2053,5.1282,-5.6409,8.2053,
-20.5125,1.0256,-39.9998,15.385,-22.5637,-6.6663,67.6926,-62.051,4.1028,-1.0256,7.6926,9.7439,-4.615,7.6926,
-18.718,-1.282,-41.7949,19.2307,-22.3079,-1.7952,66.4099,-57.1797,1.7947,1.282,7.4358,9.4871,-4.8718,9.4871,
-21.0254,0,-41.5383,14.3589,-25.1279,-3.5898,61.0259,-55.3845,0,7.1797,7.6924,8.2051,-5.1279,11.7949,
-19.7437,2.3076,-47.4358,9.4873,-27.9487,-10,57.6924,-59.7437,-1.7949,1.7949,3.8462,3.3335,-9.4873,4.3589,
-12.5642,7.4358,-47.9485,17.1794,-21.282,-4.3586,64.8718,-55.1282,1.282,-1.282,5.8977,4.8718,-4.8718,5.8977,
-16.1541,1.282,-43.8462,21.7947,-26.4104,-3.8459,64.3591,-49.4873,-0.25659,-0.25659,7.4358,4.8718,0.25659,12.5642,
-17.1794,1.282,-44.3589,17.6921,-34.6155,-13.0769,59.2307,-52.5642,7.4358,-2.3079,5.8972,2.8206,-1.282,11.5383,
-10.5127,10.5127,-41.282,16.1538,-26.4102,-8.9741,62.8203,-58.718,16.1538,-3.8462,7.9487,3.3335,-3.3335,10,
-15.1282,11.0256,-41.7949,18.2053,-24.8718,-0.76929,62.8206,-61.7949,1.282,-4.8718,8.4617,0.76929,-4.8718,8.4617,
-18.4617,6.6667,-44.1025,17.4358,-34.3589,-4.1023,63.5896,-59.4871,-2.5642,-2.5642,11.282,6.1541,2.5642,11.282,
-20,0.51269,-49.2307,14.3589,-41.5383,-10.769,60.5127,-66.1538,5.1284,-4.6152,7.6924,6.1538,-0.5127,8.2051,
-18.9741,0.51269,-47.6921,17.9487,-32.3076,-1.0254,62.564,-64.1025,7.1797,-5.6411,7.1797,1.5386,-0.5127,8.2051,
-17.4358,0.51294,-43.0769,19.9998,-24.6155,-1.0256,68.2048,-58.9744,-0.51294,-4.6155,9.2307,3.0769,5.1282,10.7693,
-16.4104,3.5896,-37.9487,23.5896,-25.1282,-11.7952,67.1794,-62.0513,-3.5896,-4.6155,9.7434,6.1536,5.6409,12.3079,
-16.667,1.7949,-34.6155,23.333,-25.8977,-7.436,66.9229,-60.2566,1.7949,-3.8462,12.0513,-1.7949,5.3843,15.1279,
-15.8972,-1.0256,-35.3845,22.5642,-25.6409,1.0256,70.2566,-51.7947,10.2566,-1.0256,16.9231,-1.5383,6.1541,17.949,
-23.3333,-2.8206,-43.3333,16.6667,-36.6667,-8.4617,62.8206,-60.2563,3.8459,-0.76929,11.5383,6.4104,0.76929,10.0002,
-27.9487,-3.8462,-41.2822,14.1025,-42.8206,-13.5898,60.2563,-67.9487,-0.25635,0.25635,7.436,4.3589,0.25635,7.9487,
-24.1028,-1.0256,-40,18.9744,-38.4617,-11.282,60.5129,-62.5642,4.1023,-2.5642,6.6667,1.0256,1.5383,9.7434,
-20.2563,-0.25635,-41.282,14.1025,-34.6155,-12.0513,57.1797,-59.2307,4.3589,-2.3076,6.9233,4.8716,0.25635,7.436,
-16.6667,-2.3079,-35.1282,14.6155,-34.6155,-11.0256,58.718,-59.7437,-1.282,3.3333,9.4871,1.282,5.3845,8.9744,
-16.4102,-0.51269,-32.3076,25.1284,-34.3589,-5.6406,65.6411,-60.5127,0,3.0771,10.2563,0,14.3594,15.3848,
-23.0767,-4.1025,-34.3589,22.0513,-40,-8.2051,64.6152,-62.564,2.564,-2.564,9.231,3.5898,10.2563,15.3848,
-24.3589,-7.9487,-36.6665,21.7949,-42.3076,-13.0767,61.2822,-59.2307,-0.25635,0.25635,11.5386,5.8975,2.3076,14.1025,
-24.6152,-7.6924,-39.4873,21.5386,-35.8975,-13.3335,63.5898,-60,-0.5127,2.564,9.7437,3.5898,0.5127,11.2822,
-24.1025,-6.6665,-39.4873,11.2822,-30.2563,-14.8716,66.6665,-65.6411,2.0513,0.5127,3.5898,-0.5127,4.6152,4.1025,
-27.1794,-12.8206,-42.0513,10.2566,-33.8459,-16.4104,64.6155,-68.2051,1.0256,2.5642,3.0769,-1.0256,3.0769,3.5896,
-26.1541,-16.9231,-42.5642,16.9231,-40,-12.3079,62.5642,-63.0769,4.6155,6.1536,10.2566,3.0769,-3.0769,11.7947,
-18.2051,-8.4614,-39.7437,20.2563,-34.6155,-2.3076,63.333,-56.6667,7.4355,7.4355,10,2.3076,-2.3076,12.564,
-20.5129,-6.1536,-40,15.8977,-31.282,-3.0769,62.0515,-61.0256,7.1794,6.1541,9.2307,-3.5896,3.0769,7.1794,
-32.051,-16.1536,-46.9231,10.5129,-43.8462,-17.6921,56.1541,-65.3845,3.8464,3.3333,8.9744,-0.76929,0.76929,2.8206,
-26.1538,-11.7949,-48.718,13.3335,-45.1282,-11.7949,55.3848,-60.5129,3.0771,2.564,6.1538,5.6411,-2.564,4.1025,
-21.0259,-6.1538,-48.2051,9.231,-36.9229,0,55.3848,-65.1282,0.5127,1.0259,0,0.5127,-2.564,3.0771,
-24.6157,-7.6924,-46.1541,9.2305,-35.8975,-7.6924,54.8716,-67.1797,0,2.564,2.564,0,1.5381,2.564,
-24.6157,-8.7183,-45.1284,8.7178,-38.4614,-15.3848,52.8203,-60,-0.5127,1.0254,4.1025,5.1279,0.5127,3.0767,
-22.8206,-7.9485,-42.3076,7.949,-36.1536,-4.8718,56.1541,-58.7178,0.76929,1.2825,2.3079,10.0002,-0.76929,5.385,
-22.8206,-8.9744,-43.3333,13.0769,-34.6155,-0.25659,62.8206,-60.7693,-1.282,5.3845,2.3079,11.5383,0.25659,4.8718,
-20.5129,-12.3079,-45.6411,11.282,-35.3845,-10.7693,63.0769,-57.9487,-2.5642,4.6155,3.0769,5.1282,2.5642,4.6155,
-17.4358,-8.718,-38.9744,14.3591,-30.7693,-9.2307,60.5129,-56.9231,4.6155,0.51294,7.1794,-0.51294,9.2307,9.7434,
-17.9487,-3.0771,-34.8721,20.5127,-26.667,0,61.0254,-58.9746,5.1279,0,12.3076,0,12.3076,10.769,
-15.1282,-6.4099,-37.6921,18.2053,-25.8972,-3.3333,64.3591,-57.6921,2.3079,0.76929,10.0002,-0.76929,9.4871,8.9744,
-12.3076,-7.6924,-36.9231,22.0513,-23.5898,-5.1279,64.1025,-52.3076,3.5898,1.5386,7.6924,-1.5386,9.7437,13.8462,
-18.4612,-6.1536,-33.3333,21.5388,-29.7434,1.0256,63.0769,-51.282,3.5901,-2.5637,9.7439,-1.0256,11.282,15.385,
-20.2563,-7.4355,-35.6409,17.1797,-35.6409,5.3848,61.2822,-54.1025,1.7949,-6.9229,10.5132,-1.7949,7.9487,9.4873,
-17.436,-8.2051,-42.0515,16.4102,-31.7949,3.5894,57.9487,-56.4104,0,-1.0259,7.1792,0,3.5894,6.1538,
-16.4104,-6.6667,-39.4871,14.8718,-32.3074,1.0256,57.4358,-55.3845,-2.051,1.0256,5.6409,-1.0256,5.6409,6.6667,
-14.1028,-1.282,-33.0769,16.6667,-29.4871,4.8718,58.718,-48.4617,0.76929,-0.76929,4.8718,-1.7952,7.9485,6.4104,
-17.9485,-7.6921,-36.9231,12.8206,-30.2561,1.0256,54.8718,-50.2563,5.1282,-1.0256,2.5642,-4.1023,4.6155,5.1282,
-17.1794,-13.0769,-33.0771,18.718,-34.6155,-1.282,61.282,-48.9746,11.0256,1.282,12.5642,-1.7952,10.5125,8.4612,
-18.9744,-13.8459,-29.7434,27.6926,-37.9485,-4.1023,69.2307,-47.6921,15.3845,2.5642,21.0256,-2.5642,16.4104,10.2566,
-22.3079,-15.1282,-31.5386,23.8459,-40.7693,-14.1028,66.9231,-51.0256,17.6921,4.8718,18.2053,-4.8718,14.1023,11.5383,
-20.0002,-15.3845,-33.3333,17.4358,-46.1538,-16.4104,55.3845,-54.3589,5.6409,2.5642,10.2566,-2.5642,7.1794,6.6667,
-17.4358,-10.2566,-29.2307,15.8972,-39.4873,-5.1282,59.4871,-54.3589,-1.0256,1.0256,3.0769,1.5383,4.1028,3.5896,
-19.2307,-6.4104,-26.4104,19.2307,-29.9998,4.8718,67.949,-55.6411,2.3079,-1.7947,-5.3845,1.7947,1.7947,4.8718,
-14.6152,-2.3076,-24.8716,23.3335,-33.5898,12.0513,64.3589,-47.9487,2.3076,-4.3589,-6.4102,2.8203,2.8203,10,
-12.5642,-2.3079,-21.282,19.7434,-40.2563,10.5129,58.2053,-43.8462,2.3079,-1.7947,-1.282,1.282,2.3079,11.0256,
-14.3591,-0.51294,-19.4871,22.5642,-36.9231,4.6155,61.5383,-45.1282,5.1282,2.5642,-1.5383,0.51294,-0.51294,11.7952,
-12.0515,-1.282,-23.3333,23.3333,-34.6155,6.9231,62.8206,-41.7949,5.3845,0.25659,-2.8206,0.25659,-0.25659,13.0769,
-8.7178,-3.0767,-24.1025,20.5127,-35.8975,8.7178,62.564,-42.564,4.6152,-2.0513,0.5127,-0.51269,2.0513,11.2822,
-12.0515,-1.7947,-23.3333,19.7434,-38.718,3.8459,67.9485,-48.4614,0.76929,-0.76929,-0.25659,1.7947,0.25659,6.4104,
-13.8464,-3.0769,-25.1282,17.9485,-41.0256,5.1282,71.282,-46.1538,-2.5642,3.0769,0.51294,6.1536,-0.51294,7.6921,
-11.0259,-5.8975,-29.4873,18.7178,-39.7437,5.8975,64.3589,-42.3079,-0.25635,5.8975,0.25635,4.8716,-3.3335,9.4873,
-10.5127,-4.8721,-29.4873,16.1538,-36.6667,0.25635,63.333,-44.8718,6.9229,5.8975,-0.25635,3.333,-2.8208,7.436,
-11.7944,-4.6152,-26.6665,13.3335,-34.3589,0,68.2056,-45.6409,6.1543,2.5645,0,3.5898,-2.0513,5.6411,
-16.9229,-5.1279,-30.769,15.8975,-33.333,2.5645,65.1284,-47.1792,1.5386,0,0,2.0513,-2.564,4.6157,
-18.718,-8.4617,-33.0769,15.1282,-38.718,2.3079,64.3591,-49.4871,4.3591,2.8206,0.25659,-0.25659,-1.282,4.8718,
-14.8718,-8.718,-29.7434,16.4104,-41.5383,4.1028,67.1794,-44.1025,7.1794,6.1541,-2.051,-0.51294,0.51294,9.2307,
-19.4873,-9.7437,-30.7693,20,-33.3333,4.6152,64.1025,-42.0513,8.2051,6.1538,-0.5127,0.51269,-3.0767,11.7949,
-23.0769,-11.7947,-31.7949,19.4871,-29.2307,1.0256,63.0769,-46.1538,9.2307,6.6667,6.1541,-1.0256,-5.6409,9.7439,
-18.718,-8.4617,-31.0256,16.6667,-37.1794,1.7947,60.2566,-46.9231,5.3845,6.4104,6.9231,-1.7947,-6.4104,6.9231,
-13.5894,-9.4868,-29.4868,12.5645,-41.282,-0.25635,57.6924,-47.4358,4.8721,5.8975,3.8462,0.25635,-8.4614,7.436,
-8.2053,-5.6409,-26.1541,17.9485,-28.2053,-1.5383,66.1536,-44.1025,9.2307,13.8459,7.6921,1.5383,-4.1028,10.7693,
-10.7688,-2.051,-28.7175,16.4104,-22.5637,1.0256,67.1799,-44.1023,5.1287,10.7693,6.1541,-1.0256,-6.6663,5.6414,
-12.8203,-1.5386,-25.6411,12.8208,-30.769,0.5127,66.1538,-44.6152,5.1284,6.1538,6.1538,-0.5127,-10.2563,4.1025,
-9.231,-2.564,-23.5898,20,-30.7693,-4.6152,71.2822,-41.5386,10.769,11.2822,10.2563,2.564,-5.1284,6.6665,
-9.2307,-3.0769,-24.6155,18.4617,-26.1536,-7.1794,70.2566,-41.5383,10.7693,13.8464,10.2566,3.0769,-3.5896,6.6667,
-12.564,0.25635,-21.7949,12.564,-31.5386,-6.9233,62.8203,-43.8462,4.8716,8.4614,7.436,-0.25635,-9.4873,4.8716,
-9.9998,5.385,-20.7693,15.6414,-32.051,-3.3333,66.4104,-38.2051,3.3333,7.4363,6.9231,-3.8459,-9.9998,4.3591,
-11.0256,-0.76929,-22.8206,15.6409,-30.5129,0.76929,69.4871,-34.6155,5.8972,6.9231,6.4099,-7.949,-7.4358,3.8459,
-12.8206,-3.5896,-22.5642,18.4617,-32.3079,3.5896,65.6409,-36.4104,6.6667,3.5896,7.1794,-9.2307,-8.2053,6.1536,
-12.0513,1.2822,-25.3848,18.2051,-33.0767,-0.25635,65.3848,-39.2307,1.7949,0.25635,3.8462,-9.4873,-11.5386,4.3589,
-10.5125,3.3337,-24.3586,15.6414,-27.9485,0.76929,66.9231,-36.1536,0.76929,3.8464,-0.76929,-6.9231,-12.5637,0.76929,
-10.769,3.0771,-21.0259,14.3589,-27.6924,5.6411,58.9741,-37.436,0.5127,7.1797,-0.5127,-7.6924,-13.3335,4.1025,
-9.7434,3.0769,-21.0256,13.8459,-28.2053,3.5896,54.3591,-40,-0.51294,6.1541,0.51294,-13.3333,-11.282,3.5896,
-6.6667,5.6409,-23.5896,17.9485,-22.0515,3.5896,64.6155,-31.7949,2.051,6.1536,1.5383,-9.7434,-6.1541,-1.5383,
-10.2566,5.1282,-26.6667,12.8206,-27.1794,6.6667,68.2053,-31.282,1.5383,10.2566,2.5642,-5.6409,-8.718,-1.5383,
-12.8206,2.0515,-28.718,8.2053,-32.3079,7.1794,63.0769,-40.5129,-2.0515,12.3079,2.0515,-6.1541,-14.3591,2.5642,
-9.4873,3.8462,-32.0513,13.5894,-21.2822,5.8975,64.8716,-38.7183,-3.8462,6.4102,2.3076,-1.7949,-11.5386,1.7949,
-8.7183,2.564,-32.3076,11.7949,-19.4873,4.1025,67.1792,-35.3848,-5.1284,0.5127,1.5386,0,-8.7183,0,
-12.051,1.7947,-28.9744,13.5896,-25.8972,5.3845,64.8718,-34.6155,-1.7947,4.8718,4.8718,-3.8459,-8.9744,2.8206,
-17.6921,-0.25659,-33.0769,13.0769,-30.5129,3.3333,59.7434,-35.6409,0.25659,3.3333,3.8459,-6.9231,-10.0002,1.282,
-15.6411,1.7949,-34.1025,10,-34.1025,2.3076,60.2563,-34.6152,0.25635,0.25635,1.2822,-1.2817,-8.4614,-0.25635,
-13.3333,6.1541,-30.7693,13.8464,-30.2561,4.6155,64.1028,-35.8972,-0.51294,4.6155,0.51294,-4.1023,-10.2561,0.51294,
-15.3845,1.0256,-26.6667,14.3591,-24.1028,-1.0256,67.1794,-38.4617,3.0769,4.6155,4.1028,-19.1023,-12.3079,1.5383,
-15.3845,1.0256,-23.0769,15.3845,-26.6667,-0.51294,65.6414,-37.4358,3.5901,0.51294,5.1282,-25.1282,-9.7434,2.0515,
-15.3848,5.1279,-22.0513,13.333,-28.7183,4.1025,64.1025,-35.8975,0,0,2.0513,-23.0771,-10.2563,1.0254,
-13.0767,6.9233,-17.1792,13.5898,-22.3076,1.2822,67.436,-34.6152,-1.2822,4.8721,2.8208,-24.8716,-12.0513,1.2822,
-11.0254,5.8975,-15.1279,14.6157,-24.8716,-0.25635,65.3848,-36.1538,0.25635,5.3848,3.8462,-25.3843,-11.0254,1.2822,
-15.8972,-0.51294,-22.0515,6.6667,-35.8972,1.0256,59.4871,-41.0256,1.0256,0.51294,1.0256,-25.1282,-13.8459,0.51294,
-16.4102,0,-25.6411,9.231,-32.3076,2.564,61.0259,-37.9487,0.5127,1.5386,0,-23.0771,-14.3589,3.5898,
-13.8459,4.1028,-24.6155,10.7693,-21.5383,-0.51294,66.6667,-32.8206,1.0256,4.1028,0.51294,-21.0256,-11.7947,3.0769,
-13.5896,0.76929,-21.282,4.8718,-22.8206,-0.25659,66.9231,-33.5896,1.7947,0.25659,0.76929,-23.8464,-12.5642,0.25659,
-13.8462,2.0513,-16.9229,10.769,-27.6924,5.1284,64.1025,-37.436,1.5386,-0.5127,3.0771,-25.6411,-14.3589,0.5127,
-14.8716,4.1025,-18.9741,9.7437,-29.7437,5.1284,63.5898,-38.9741,-1.0259,2.564,2.564,-23.5898,-13.3335,1.0259,
-10.769,4.6152,-21.0259,8.7178,-24.1025,4.1025,65.6411,-32.3076,-1.0259,2.0513,2.564,-24.1025,-11.7949,1.0259,
-7.1794,4.1023,-24.1028,12.8206,-21.5388,3.5896,64.6155,-31.7952,0.51294,0.51294,3.5896,-26.1541,-13.3333,-0.51294,
-8.9744,8.4612,-22.3079,11.5383,-22.8206,6.4099,64.8718,-33.5901,0.76929,5.8972,3.8459,-20.2566,-11.5388,-0.76929,
-6.6665,14.8721,-16.9229,11.7949,-16.9229,9.231,68.7183,-25.6411,-1.5386,9.7437,3.5898,-12.8203,-5.6411,1.5386,
-6.9233,8.9741,-16.1538,9.4868,-16.1538,3.8462,67.4355,-22.8208,-1.7949,7.4355,2.3076,-20.2563,-2.8208,1.7949,
-9.7437,5.1279,-20,6.6665,-17.9487,1.0254,62.564,-29.231,0.5127,4.1025,1.5386,-28.2051,-7.6924,-0.5127,
-6.1541,10.7693,-22.0515,7.1794,-9.2307,6.6667,69.7434,-27.1794,-0.51294,9.7434,1.0256,-22.5642,-9.2307,0.51294,
-2.8203,13.5898,-18.7178,7.9487,-6.4102,10.5127,77.6924,-25.8975,-1.7949,14.6152,1.7949,-14.6152,-7.436,1.7949,
-1.7949,15.1279,-14.6152,10.5127,-13.0771,7.436,71.5386,-29.4873,-1.7949,10,1.7949,-16.1538,-7.436,1.7949,
-2.0513,14.8716,-12.8208,9.7437,-14.3589,4.6152,67.1792,-26.1538,-2.0513,9.2305,2.0513,-19.4873,-7.1797,4.6152,
-7.1797,9.231,-16.4102,9.231,-20,2.0513,70.2563,-24.1025,-2.0513,12.8203,3.0771,-13.3335,-8.2051,3.5898,
-8.718,6.6667,-20.5129,10.2561,-32.8206,3.0769,66.6667,-27.1794,-1.0256,10.7693,1.0256,-10.2566,-11.7952,4.6155,
-6.667,13.333,-15.8975,9.2305,-29.231,7.1792,62.564,-25.1284,0,5.6406,0,-11.2822,-13.3335,9.2305,
-6.6665,22.0513,-14.8716,14.8721,-18.9741,8.7183,65.6411,-20,-2.0513,9.7437,2.0513,-7.6924,-10.769,6.667,
-8.9744,15.1282,-17.6921,14.6155,-26.9231,5.3845,65.3845,-20.2561,-2.3079,13.5896,3.3333,-8.9744,-13.0769,2.3079,
-13.3333,6.1536,-14.8718,9.2307,-34.8718,2.5642,61.0256,-21.5383,-0.51294,8.718,1.0256,-17.949,-15.8977,0.51294,
-16.1538,11.0254,-15.1284,12.564,-27.436,2.3076,63.3335,-21.2822,-1.2822,3.8462,1.2822,-19.7437,-10.5127,5.3848,
-15.3845,8.718,-17.949,13.3333,-26.6667,1.5383,66.1541,-21.0256,-1.5383,2.5642,4.6155,-14.8718,-4.1028,11.282,
-15.6409,2.8206,-18.2053,11.0256,-32.5642,4.3591,59.7434,-18.718,-2.8206,5.8972,2.8206,-13.0769,-6.9231,8.9744,
-15.8977,9.2307,-20.0002,10.2561,-27.1799,10.7688,59.4871,-17.949,-1.0256,6.1536,1.0256,-13.8464,-7.1799,5.1282,
-13.3333,12.3079,-21.5383,10.2566,-24.1028,9.7434,63.5896,-22.0515,-0.51294,1.5383,0.51294,-14.3591,-5.6409,3.5896,
-9.7439,8.718,-16.9231,11.7947,-26.6667,9.7434,63.0769,-17.949,-0.51294,8.2048,0.51294,-11.7952,-10.7693,4.1023,
-12.0513,5.3843,-14.6157,5.3843,-31.5386,11.0254,60.2563,-18.2051,-0.25635,10,0.25635,-13.5898,-11.5386,1.2817,
-11.5383,8.9744,-12.0515,4.8718,-32.0515,11.0256,58.718,-23.3333,-1.282,7.4358,1.282,-14.6155,-3.8464,1.7947,
-8.9744,11.5383,-10.5129,7.949,-28.4617,4.3591,58.2053,-22.8206,-0.76929,11.5383,0.76929,-9.4871,-1.282,3.8464,
-9.7437,13.3335,-9.7437,8.7178,-27.1797,-5.1284,61.0259,-21.5386,3.5898,14.8716,1.5386,-9.231,-1.5386,3.5898,
-12.564,12.0513,-11.5386,10,-28.9741,-5.8975,60.7695,-23.8462,2.8208,11.5386,1.7949,-9.4873,-1.7949,4.3589,
-11.0256,7.9485,-10.5129,6.4104,-31.0256,1.282,58.2053,-21.7947,-0.76929,9.9998,0.76929,-5.8977,-8.9744,5.8972,
-9.231,7.6924,-7.1797,9.2305,-31.7949,5.1279,60,-17.9487,0,7.6924,0,-6.667,-16.9233,6.1538,
-16.6665,6.4102,-9.4873,9.4873,-30,1.7949,60.2563,-20.769,-0.25635,0.76904,0.25635,-6.9233,-17.1797,4.3589,
-15.3848,3.5898,-11.2822,9.231,-28.2051,4.1025,60,-18.4614,-0.5127,0.5127,1.0259,-4.1025,-18.4614,7.6924,
-11.5386,5.8975,-15.1284,13.5898,-26.4102,6.9229,60.769,-17.6924,-1.2822,2.8203,1.2822,-6.9233,-23.8462,6.9229,
-17.436,5.1279,-15.3848,9.7437,-29.7437,3.0767,61.0254,-23.5898,-0.5127,6.1538,1.5386,-8.2051,-23.0771,0.5127,
-16.9233,3.5898,-14.3589,10.2563,-32.3076,3.5898,57.9487,-20.5127,0.5127,10.2563,-0.5127,-8.2051,-22.0513,0.5127,
-10.769,8.7178,-14.3589,15.3848,-24.1025,6.6665,56.9229,-13.8462,1.5386,6.6665,-1.5386,-9.231,-22.564,3.0771,
-10.769,9.7437,-11.7944,11.2822,-21.5381,0,57.436,-17.4355,1.5386,2.5645,0,-7.6919,-19.4868,4.6157,
-14.3591,5.1282,-13.3333,9.2307,-30.2566,-0.51294,53.8459,-20.0002,0.51294,4.6155,2.5642,-4.6155,-20.5129,4.6155,
-11.0256,-2.8206,-10.5129,14.1028,-33.5896,2.8206,56.6667,-17.1794,8.4617,10.0002,9.4871,-5.3845,-18.2053,5.3845,
-1.7949,-0.25635,0.25635,25.3848,-24.3591,-0.76904,64.8716,-12.564,21.7949,16.6665,19.7437,-7.436,-3.8462,14.6152,
-6.9231,6.4104,-8.4617,20.2566,-22.8206,-6.4104,58.2053,-15.1282,13.0769,8.9744,13.5896,-11.5383,-6.9231,11.0256,
-14.3591,6.1536,-17.4358,6.6667,-27.6926,2.5642,57.4358,-14.3591,-0.51294,0.51294,2.051,-7.1794,-21.0256,0.51294,
-12.0513,5.3848,-7.9487,10,-22.3076,10.5127,64.8716,-11.5386,-0.76904,2.8203,0.76904,-2.3076,-17.1797,4.3589,
-12.0513,2.3076,-5.3848,10.5127,-21.2822,0.76904,58.2051,-17.1797,0.25635,0.76904,-0.25635,-12.564,-13.5898,7.9487,
-9.7437,2.564,-4.6152,14.8721,-23.5898,1.5386,53.8462,-15.3843,3.5898,0,0,-15.8975,-20,5.1284,
-7.6921,6.1541,-2.5642,21.0256,-23.5896,13.8464,54.8718,-10.2561,1.0256,2.0515,-1.0256,-12.8206,-19.9998,7.6926,
-11.7949,8.7183,-4.1025,15.8975,-20,11.2822,52.3076,-13.333,-0.5127,4.6157,0.5127,-11.2817,-13.8462,14.3589,
-16.4102,2.0513,-13.333,10.2563,-20.5127,0,45.6411,-17.4355,0,4.1025,2.0513,-10.2563,-18.4614,7.1797,
-10.5127,-3.8462,-11.0259,17.6924,-21.7949,7.9487,51.0254,-11.5386,3.8462,9.4873,5.8975,-4.8721,-15.1284,6.4102,
-9.2307,-1.0256,-3.5901,20.5125,-24.6155,12.3074,54.3586,-13.8464,1.0256,9.7434,1.5383,-7.1794,-12.3079,11.282,
-10.0002,4.8718,-4.3591,15.1282,-24.8718,7.4358,49.4871,-16.6667,1.282,6.4104,-1.282,-5.3845,-17.6926,9.9998,
-16.6665,-2.3076,-10.5127,6.9229,-33.0771,2.8203,40.2563,-19.7437,1.7949,2.3076,1.7949,-1.7949,-25.3848,1.7949,
-22.0513,-10.2563,-12.3076,12.8208,-37.9487,-0.51269,38.9746,-19.4873,0.5127,4.6157,5.1284,1.0259,-24.1025,2.5645,
-16.6667,-9.4871,-11.0256,17.6921,-31.0256,-2.8206,41.7947,-13.5896,2.8206,9.4871,4.8718,4.8718,-19.2307,12.5642,
-16.667,-10,-12.5645,7.9487,-31.0259,1.7949,40.769,-17.6924,0.25635,2.3076,0.25635,-0.25635,-23.8462,10,
-13.8462,-3.5898,-6.6665,13.8462,-29.7437,11.7949,47.6924,-16.9229,-1.5386,3.5898,4.6157,1.5386,-23.0767,6.667,
-13.5896,-5.8977,-6.4104,17.1794,-30.5129,2.8206,46.9231,-17.6926,-2.8206,5.3845,4.8718,4.3586,-23.3333,4.8718,
-14.3589,-5.6411,-4.6152,17.436,-26.6665,2.0513,45.6411,-14.8716,0.51269,2.0513,3.0771,-0.5127,-22.0513,8.7183,
-13.333,-2.0513,0,17.436,-18.9741,9.231,49.7437,-11.2817,7.6924,0,5.6411,-7.6919,-22.0513,8.2056,
-12.5642,-2.8206,-4.8718,15.6409,-21.7952,4.8718,43.8459,-12.0515,6.9231,2.8206,4.8718,-7.949,-26.9231,4.3591,
-10,0.25635,-12.564,15.1279,-27.9487,-0.25635,36.6665,-14.6152,1.2822,2.8203,0.25635,-5.3848,-28.9746,2.8203,
-8.2056,1.5381,-11.7949,8.2051,-27.6924,0.5127,38.4614,-16.9233,0.5127,0,0,-9.231,-30.2568,1.0254,
-6.4104,-2.8206,-9.4871,6.4104,-20.7693,3.8459,37.1794,-13.5896,4.3591,3.8459,4.8718,-6.9231,-28.9744,2.8206,
-7.949,-6.9231,-11.0256,10.5125,-18.718,3.3333,38.7175,-13.5901,4.8718,7.4358,5.3845,-2.8206,-28.4617,2.8206,
-4.8718,-0.76929,-7.9485,16.1541,-19.2307,0.76929,51.5388,-14.615,6.4104,5.385,7.949,-4.8718,-25.8972,3.8464,
-7.1794,3.0769,-12.3074,15.8977,-25.6409,-1.0256,48.2053,-14.8718,5.6414,1.0256,5.1282,-11.7947,-27.6921,4.1028,
-10.5127,-2.3076,-13.0767,14.6157,-31.5381,3.3335,41.2822,-10,7.9487,2.3076,5.3848,-12.0513,-27.4355,5.3848,
-7.1794,-0.51294,-7.1794,23.0769,-28.718,2.5642,48.718,-6.6667,10.2561,0.51294,11.282,-5.1282,-22.5642,5.6409,
-7.1794,5.6409,-8.2048,21.0256,-26.6667,-0.51294,53.3333,-10.2561,7.6921,0.51294,11.7952,-3.5896,-20.5129,4.6155,
-13.0769,0.76929,-8.4617,12.5642,-31.5383,-0.76929,46.4104,-14.1028,6.4104,2.3074,5.8972,-8.4617,-23.8464,2.8206,
-12.564,-1.7949,-4.3589,19.231,-30,1.7949,43.8462,-12.564,5.3848,4.3589,6.9233,-5.3843,-25.8975,2.8208,
-11.0256,-2.8206,-8.4617,19.2307,-29.4871,3.3333,44.3586,-12.0515,2.8206,5.3845,5.3845,-3.8464,-25.8977,4.3586,
-7.4358,-1.282,-8.4612,20.2566,-29.4871,6.4104,45.8977,-7.4358,8.4617,6.9231,1.282,-7.9485,-23.8459,9.4871,
-11.7949,1.0254,-10.2563,21.0254,-23.5898,4.1025,45.1279,-7.6924,6.6665,0,0,-15.3848,-27.1797,5.1279,
-12.3074,4.1028,-11.282,16.4104,-16.9231,6.1541,48.718,-10.7693,2.5642,-1.5383,3.0769,-13.8459,-26.6667,1.5383,
-7.6921,5.6414,-8.2048,16.4104,-16.9226,8.718,44.1028,-6.6663,2.0515,3.0774,-1.0256,-12.8201,-28.7175,1.0256,
-11.2817,2.0513,-5.1279,12.8208,-17.9487,3.0771,37.9487,-3.5898,3.0771,3.5898,-0.5127,-14.3589,-30.769,0.5127,
-9.7437,-0.5127,0.5127,15.3848,-20.5127,-1.0259,44.1025,-7.1797,8.2051,9.231,10.769,-9.231,-24.1025,6.1538,
-4.8718,-2.8206,-0.25659,19.2307,-24.3591,0.25659,44.8718,-14.1028,10.0002,11.5383,11.0256,-4.8718,-21.282,8.9744,
-6.1538,-3.0771,-2.564,15.3848,-22.0513,2.564,42.564,-12.8208,9.231,7.6924,7.6924,-3.0771,-22.564,4.1025,
-8.2051,-3.0771,-5.1284,18.4614,-24.1025,0,44.6152,-8.7183,9.2305,3.0767,11.2817,0,-21.5386,2.0513,
-3.5896,-1.0256,-2.5642,24.1028,-27.1794,-6.1536,47.6921,-7.1794,13.8464,1.0256,14.3591,5.6409,-17.4358,8.718,
-2.3079,2.3074,-0.76929,21.7947,-21.282,-7.4358,44.8718,-4.8718,12.051,-0.76929,9.9998,0.76929,-19.7439,12.051,
-2.5637,1.0256,-7.6921,18.9744,-15.8972,1.5388,42.0515,-1.5383,6.6667,-1.0256,4.6155,-1.5383,-23.5896,6.1541,
-6.1538,-4.6152,-14.3589,14.3594,-18.9741,7.1797,41.5386,-8.7178,3.0771,0,3.0771,6.1543,-22.0513,0,
-9.4873,-3.3335,-16.6665,12.0513,-15.1284,4.8716,44.3589,-15.1284,-0.25635,1.2822,1.2822,0.76904,-20.2563,0.25635,
-6.1543,1.5381,-15.8975,11.2817,-11.2822,3.5894,47.6919,-12.8208,0,0,0,-10.2568,-20,0,
-6.1538,0.5127,-12.8203,10.2563,-13.3335,8.2051,46.6665,-8.7178,2.0513,0,2.564,-8.2051,-21.0259,0,
-10.2561,-1.0256,-13.3333,12.8206,-12.3074,13.3333,45.1282,-6.6667,2.5642,1.0256,3.5901,-3.0769,-21.5383,2.5642,
-10.5129,1.7947,-17.1794,12.051,-8.4617,13.5896,44.8718,-6.4104,-0.25659,1.7947,0.25659,-6.9231,-19.7434,4.3591,
-5.1282,12.8206,-14.8718,10.7693,0.51294,18.4617,45.1282,-5.6414,-1.5383,9.2307,-1.5383,-0.51294,-18.9744,1.0256,
-4.3589,14.6152,-14.1025,4.3589,0.25635,16.6665,45.8975,-6.9233,-1.7949,10,-0.25635,0.76904,-26.4102,-5.3848,
-6.1536,5.6414,-9.2307,9.7439,-11.282,7.6926,48.2053,-5.1282,5.1282,4.1028,-3.0769,-8.2048,-28.2048,3.0769,
-6.4104,1.282,-1.282,21.7947,-22.3079,1.7947,46.4104,-5.3845,8.9744,4.3591,-3.8459,-5.8972,-20.7693,10.5129,
-3.0769,1.5383,-2.0515,17.4358,-24.1028,-3.5896,42.5642,-12.8206,7.6921,8.718,1.5383,-1.5383,-21.5383,6.1536,
-1.7949,4.3594,-7.9487,15.1284,-20.769,-5.3843,42.8208,-13.0767,4.8721,7.9487,1.7949,-3.8462,-25.8975,2.8208,
-7.6924,2.564,-10.769,16.9233,-25.6411,0,42.564,-8.7178,4.6152,8.7183,-0.5127,0,-24.1025,7.6924,
