"AF3","AF4","F3","F4","F7","F8","FC5","FC6","O1","O2","P7","P8","T7","T8",
-1.7947,-8.4617,4.3591,32.051,356.1536,95.1282,-10.5129,-4.3591,-0.76929,-13.0769,0.76929,2.3079,-3.3333,6.4104,
-0.51269,-7.6924,3.5898,36.9233,371.1536,110.1282,-11.282,-2.564,-8.718,-10.2563,0.5127,5.6411,-8.2051,21.4104,
1.0256,-2.5642,4.1028,36.4104,386.1536,125.1282,-15.3845,-5.6409,-12.3076,-4.1023,-1.0256,2.0515,-18.4614,12.8206,
1.7952,5.3845,5.8977,34.1028,401.1536,133.5901,-11.5383,-0.76929,-10.5127,-5.8972,0.76929,-4.3586,-11.0256,-2.1794,
-2.3076,5.3848,-0.25635,32.5645,416.1536,136.1538,-10.5127,-2.3076,-13.0769,-11.0256,0.25635,0.76953,-5.3843,9.4873,
-4.8721,3.333,-2.3076,34.1025,431.1536,151.1538,-9.4873,-10,-11.5386,-10,2.3076,6.4102,-7.436,22.8203,
-1.282,6.4104,1.282,39.2307,446.1536,166.1538,-4.8718,-4.8718,-13.0769,-9.9998,2.3079,-3.8459,-11.5386,11.0256,
-0.5127,7.6924,0.5127,33.8462,461.1536,181.1538,-4.1025,2.0513,-16.4104,-16.4104,-1.5386,-11.2822,-12.3076,0.5127,
0.25635,11.0259,4.3589,33.5898,476.1536,196.1538,-2.3076,-0.76904,-4.3589,-14.6152,-0.25635,-5.3843,-10,14.1025,
1.5383,13.8459,6.1536,34.3591,491.1536,209.7434,-2.0515,-4.6155,-1.5383,-12.8206,-2.5642,-7.6921,-14.8718,14.3591,
4.6155,14.8718,7.1794,30.7693,506.1536,207.1794,-3.5896,1.5383,-8.718,-12.3076,-1.5383,-14.3589,-10.7693,-0.64087,
0.25635,6.9233,1.2822,31.0259,521.1536,198.7183,-13.0769,0.76953,-6.9229,-13.5896,-0.25635,-13.0769,-3.333,-4.8716,
-5.1284,3.0767,0,30.769,536.1536,200,-18.4617,-5.6411,0,-10.7693,2.0513,-5.1284,-2.0513,10.1284,
-0.76929,14.1028,0.76929,27.949,551.1536,210.0002,-14.6155,-1.7947,-2.8206,-6.9231,0.76929,-3.8459,-10.5129,15.6409,
6.9231,22.3079,-2.8206,27.949,566.1536,212.5642,-11.0256,4.8718,-8.4612,-11.5383,-5.3845,-6.4099,-12.051,2.8206,
6.4102,13.0771,-1.7949,28.9746,581.1536,205.8975,-12.0513,2.8208,-10.5127,-18.2051,-5.3843,-5.8975,-7.4355,1.7949,
0.76929,8.9744,1.282,31.0256,596.1536,207.4358,-15.6409,0.76929,-14.1025,-18.2051,-3.3333,-4.3586,-14.6152,-0.76929,
-1.0256,16.9231,1.0256,30.2566,611.1536,211.282,-15.3845,2.0515,-9.7434,-12.3074,-3.0769,-4.6155,-15.3845,2.0515,
3.0769,15.8977,1.0256,28.718,626.1536,201.0256,-12.3074,-1.0256,-6.1536,-12.3074,-4.615,-4.615,-10.7688,7.1799,
8.2056,10.7695,2.0513,31.2822,641.1536,197.9487,-10.2563,-2.0513,-12.8203,-17.9485,-6.6665,-4.1025,-7.6919,5.6411,
4.1025,8.2056,0,31.7949,656.1536,199.4873,-12.3076,0,-16.9229,-19.4871,-5.6406,-4.6152,-4.6152,6.667,
-1.0256,11.282,1.0256,35.8972,671.1536,196.9231,-18.4617,1.5383,-17.436,-20,-4.1028,-8.2053,-5.6409,4.6155,
0.5127,13.8462,5.1279,37.436,686.1536,198.9741,-15.8975,3.0767,-18.4617,-22.5642,-2.564,-11.7949,-9.7437,-0.5127,
2.3079,6.9231,0.76929,30.5129,701.1536,198.2053,-8.4617,-0.76929,-18.2051,-18.718,-5.8972,-11.5383,-10.5129,5.8977,
6.1541,10.7693,-4.1023,33.8464,716.1536,202.0515,-3.5896,1.5383,-9.2307,-5.1282,-2.051,-5.6409,-1.5383,17.4358,
2.8208,7.436,-5.8975,31.0259,731.1536,197.1797,-6.4102,-0.25635,-5.3843,-6.9229,0.25635,-7.9487,-2.3076,5.8975,
2.0513,4.1025,0,32.3076,746.1536,192.3076,-5.1284,0,-2.0513,-7.6924,-1.0259,-3.5898,-3.5898,2.0513,
0.51269,5.6411,-2.564,29.231,746.1538,189.231,-8.2051,1.5386,-8.2051,-2.564,-7.6924,1.5386,-11.7949,-0.5127,
3.8462,6.4102,-0.25635,28.9741,731.1538,187.4355,-8.9746,1.7949,-11.5386,-0.25635,-6.9233,0.25635,-10,-5.3848,
7.1794,6.6667,1.0256,35.3845,716.1538,184.6155,-8.718,-1.5383,-8.718,-3.5896,-4.6155,-1.0256,-2.5642,9.6152,
4.1028,9.7434,-3.5896,32.8206,707.6921,181.5383,-6.6667,-1.5383,-6.1541,-3.0769,-4.1028,1.5383,-6.1541,22.5642,
2.0513,8.7178,-2.564,30.2563,695.8975,180.5127,-4.6152,1.5386,-12.3076,-3.0771,-4.1025,-1.5386,-9.7437,8.7178,
2.8203,0.25635,1.7949,34.1025,680.8975,177.6924,-4.8721,-0.25635,-18.718,-6.9233,-1.2822,-5.8975,-2.8208,3.8462,
1.7947,-1.7947,-0.25659,35.1282,665.8975,175.1282,-4.3591,-1.282,-14.1025,-12.051,1.7947,-6.9231,0.25659,10.0002,
2.3076,4.3589,-4.3589,37.6924,660.769,176.6665,-1.7949,0.25635,-13.0769,-14.6155,-0.25635,-6.9229,-5.3848,0.76904,
4.8716,1.7949,-0.25635,38.7178,656.6665,176.1538,0.25635,-1.7949,-15.1284,-9.4873,-1.7949,-4.8721,-5.8975,2.3076,
5.8975,-0.25635,3.333,37.1792,641.6665,176.1538,-1.7949,-1.2822,-12.5642,-7.436,0.25635,-1.2822,-0.76953,15.1279,
5.8975,2.8203,0.25635,36.1538,627.4355,176.1538,-2.3076,-1.2822,-10.5127,-10,-0.25635,-0.76953,-0.25635,13.0767,
6.4104,1.282,-0.76929,35.6409,618.2053,176.1541,0.25659,-2.3079,-11.5386,-8.9744,-0.25659,-2.8206,-2.8206,3.3333,
4.8721,1.7949,-2.8203,36.1538,604.8721,174.1025,-10.5127,0.76953,-14.1025,-6.9229,-2.8203,0.25635,-3.8462,-0.25635,
-0.51294,3.5896,-8.718,28.2053,594.8718,170.7693,-21.5386,0.51294,-11.7947,-9.2307,-7.1794,4.6155,-5.1282,8.2053,
1.0256,6.1536,-3.0769,28.718,589.7434,172.3074,-11.282,-1.0256,-8.718,-11.7952,-6.1541,5.1282,-6.6667,12.3074,
0.76904,6.9233,0.25635,34.1025,576.1538,169.4873,-7.436,-0.25635,-12.564,-10,-5.8975,4.3589,-7.9487,-1.7949,
-0.76929,4.3586,0.76929,31.0256,563.3333,165.3845,-13.0769,2.8206,-11.5383,-3.8464,-6.9231,8.9744,-4.3591,-1.7952,
-0.5127,0,1.0254,28.2051,552.3076,162.564,-11.7949,0,-16.9229,-6.6665,-13.3335,5.1284,-9.7437,13.2048,
0.25659,1.282,-0.25659,31.0256,537.3076,161.7952,-11.0256,-1.7947,-21.282,-11.0256,-9.9998,1.7952,-9.4871,21.7952,
0.25635,2.3076,-6.4102,34.6152,524.8716,159.7437,-17.1794,-1.2822,-19.2307,-5.8975,-5.3848,3.3335,-0.25635,10.5127,
2.564,-0.5127,-10.2563,34.3589,536.4102,161.0254,-11.7949,0.5127,-17.9487,-3.0771,-7.6924,3.0767,-4.1025,6.1538,
4.3589,-0.76904,-5.8975,30.5127,538.2051,160.769,-3.3335,0.76904,-18.718,-7.9487,-6.9229,1.2822,-6.4102,7.9487,
3.8462,-0.25635,-1.2822,33.0771,523.2051,150.5127,-9.4873,-3.8462,-18.7178,-10,-7.436,1.2822,0.25635,8.4614,
5.8977,-1.7947,-0.25659,32.5642,508.2051,144.3591,-9.4871,0.25659,-15.1282,-6.4104,-7.4358,3.8464,-1.282,7.4358,
5.3848,-1.2822,-1.2822,26.4102,504.3589,142.3076,-5.3848,3.8462,-13.0767,-6.4102,-4.8716,4.8721,-4.8716,1.2822,
2.5642,0.51294,-3.0769,22.0515,493.8459,140.5129,-8.718,-1.5383,-14.8718,-9.2307,-6.6667,2.0515,-0.51294,5.1282,
3.8462,-3.3335,-0.25635,15.1279,483.8462,137.1792,-7.9487,-6.9233,-17.6924,-9.4873,-9.4873,1.2817,0.25635,17.1792,
1.5386,-8.7183,-0.5127,12.8203,469.7437,133.333,-6.1538,-9.7437,-24.6155,-11.2822,-10.2563,3.5898,0.5127,10.2563,
1.5386,-5.1284,-2.0513,20.5127,461.0254,135.3843,1.5386,-5.1284,-23.0771,-12.8208,-6.1538,4.1025,6.1538,-1.5386,
5.6411,0,0,23.5898,461.5381,139.4868,3.5898,-2.0513,-16.9233,-12.3076,-5.1284,2.564,-1.5386,-0.51318,
3.333,-0.25635,0.25635,19.2305,452.0513,133.5894,-8.4619,-4.8721,-19.7437,-10.5132,-10,5.3843,-5.8975,3.333,
0.51294,-7.1794,1.5388,20.0002,437.0513,127.1794,-9.2307,-3.5896,-21.0256,-9.7434,-6.6667,1.5388,6.1541,-0.51294,
3.8464,-10.5125,5.8977,27.949,429.4875,131.0256,-0.76929,0.76929,-18.7178,-14.6152,-1.282,-2.3074,12.0515,-1.7947,
0.25635,-16.6665,0.76904,21.7949,419.2305,126.9229,-5.3848,-8.9746,-23.8462,-21.2822,-6.9233,-0.25635,5.8975,1.7949,
0.5127,-18.9744,-0.5127,17.9487,408.2051,121.0254,-6.6665,-12.8203,-25.6411,-17.9487,-8.7178,3.0771,2.0513,6.6665,
6.4102,-11.5381,5.3848,25.8975,407.9487,128.4619,-1.2817,-0.25635,-21.7947,-12.564,-5.3843,0.25635,-3.333,1.2822,
8.2048,-12.3079,7.6921,25.6409,399.9998,135.3845,0.51294,4.1023,-17.9487,-14.8718,-2.5642,-1.0256,-0.51294,-0.51294,
8.4617,-15.6409,0.76929,21.7947,384.9998,127.4358,-4.8718,-3.8464,-20.7693,-21.2822,-7.949,-0.76929,6.9231,10.5129,
6.6665,-6.1538,-3.0771,21.0259,373.3335,127.1797,-8.2051,-2.0513,-26.1538,-16.4102,-13.8462,2.0513,6.1538,11.2822,
-0.5127,-8.2051,0,17.436,360,134.3589,-6.6665,1.0254,-28.718,-12.3076,-13.3335,5.1284,0,3.5898,
4.3589,-12.0513,0.25635,22.8203,353.5898,132.564,-2.8208,-0.25635,-21.7949,-11.0259,-5.8975,5.8975,-4.3589,10.5127,
5.6411,-8.7178,-1.0254,26.6665,346.6665,125.6411,-1.5386,0,-12.8206,-5.6411,-0.51269,0.5127,0,7.1797,
-3.8462,-11.0256,3.3335,27.9487,331.6665,118.7178,-0.76904,-0.76904,-13.5898,-0.76904,0.76904,0.76904,10.5127,-5.8975,
-5.1279,-15.8972,3.0771,29.7437,322.0513,111.7949,-2.564,-3.5894,-16.4102,-4.6152,0,7.1797,15.8975,0,
0.25635,-11.0254,-0.25635,25.8975,329.4873,114.1025,-4.8716,-2.8203,-17.1794,-3.8462,-1.2817,9.4873,11.0259,13.5898,
0.25635,-7.436,-2.8208,25.3848,329.4873,121.2817,-0.76953,-0.25635,-22.8206,-3.8462,-7.9487,2.8203,5.3848,12.564,
-0.25635,-7.4355,-1.2817,25.3848,326.4106,124.3594,2.3081,-0.25635,-25.3845,-10.5127,-7.4355,0.25635,10.5132,5.3848,
2.3076,-2.8203,3.3335,25.3848,323.8462,125.8975,-2.3076,0.25635,-22.8206,-7.436,-4.3589,-0.25635,7.436,-6.4102,
3.5896,0.51294,3.5896,26.6667,315.8977,126.1541,-3.5896,1.0256,-21.0256,-1.0256,-5.6409,-1.0256,-0.51294,-1.5383,
1.7947,-0.25659,-0.76929,23.8459,305.8972,123.8459,-2.3079,-2.8206,-22.3076,-5.3845,-6.9231,0.25659,2.3079,13.4617,
-1.5383,2.5642,-5.6414,20.5129,297.4358,117.9485,-8.718,-5.6414,-29.231,-11.282,-10.2566,1.5383,1.5383,13.3333,
1.282,6.9231,-2.3079,20.2566,295.1282,119.2307,-5.8972,-1.282,-24.8718,-7.4358,-7.9485,1.7952,2.8206,-1.6667,
5.3848,1.7949,-0.25635,20.769,287.9487,121.7949,-1.7949,0.25635,-20.2566,-5.8975,-6.9233,-3.3335,4.8716,-1.7949,
4.103,-3.0767,-2.0513,28.2056,272.9487,121.0259,-4.1025,2.0513,-23.5896,-6.6665,-7.1792,-3.0767,5.6411,2.5645,
1.2817,-3.3335,-0.76953,31.5386,259.7437,117.6924,-1.7949,0.25635,-24.8718,-5.8975,-5.3848,6.9229,6.4102,-0.25635,
-0.25659,0.25659,-3.8459,27.949,256.1541,116.6667,-5.8972,-5.8972,-26.4102,-10.5129,-9.4871,8.4617,4.3591,2.3079,
0.25635,-0.25635,-3.3335,22.8203,248.9741,119.7437,-9.4873,-3.3335,-25.8977,-6.4106,-13.5898,4.3589,1.7949,11.5381,
-0.5127,-10.7695,0.5127,21.0254,237.9487,114.3589,-2.564,0,-26.1541,0,-12.3076,5.6411,-0.5127,9.7437,
-2.8206,-12.0515,-0.76929,23.3333,238.718,107.4358,2.3079,-0.76929,-27.436,-2.8206,-12.5642,7.4358,0.76929,3.8459,
-1.7949,-8.4614,-0.25635,24.3589,240.2563,107.9487,3.8462,-3.3335,-19.231,-5.3848,-7.436,7.436,4.3589,0.25635,
0,-9.231,0,25.1279,229.2305,112.3076,1.5381,-3.0771,-13.3335,-9.231,-0.51318,5.1279,5.6406,-3.5898,
-1.0259,-10.7695,-4.6152,21.5386,224.1025,117.9487,-0.5127,-2.564,-15.3848,-8.7183,0.5127,2.564,0.5127,4.1025,
-2.051,-6.6667,-4.1023,20.5129,226.1541,114.8718,2.5642,-2.051,-14.8718,0.51294,-0.51294,5.1282,-1.5383,17.4358,
-4.3589,-0.25635,-6.4102,22.3076,216.1538,104.8721,0.25635,-2.3076,-14.6152,0.76953,-3.333,1.2822,-1.7949,7.9487,
1.7949,4.3589,-3.3335,18.7178,201.1538,108.9741,-1.7949,2.3076,-14.1025,-1.2822,0.25635,-0.76904,-0.25635,-4.3589,
4.1025,1.0254,-2.564,17.9487,186.1538,112.8203,-3.0771,0.51269,-13.3335,0,-1.5386,-1.0259,-4.1025,0,
-0.76929,1.282,-4.8718,20.7693,180.7693,107.9485,-1.282,-4.8718,-10.0002,0.76929,-4.3591,4.8718,-4.8718,1.7947,
-1.2822,2.8203,-1.7949,16.6665,171.5381,104.3589,0.76904,-6.4102,-7.436,-1.2822,0.25635,6.9229,-1.7949,-0.25635,
2.3076,-0.25635,1.2822,18.2051,156.5381,104.3589,0.25635,-4.3589,-11.5386,-2.8203,0.25635,-0.25635,-4.8716,-1.7949,
0,0,0.51269,20,151.2822,104.6152,1.5386,-2.0513,-10.2563,-3.5898,-1.0254,0.51269,-1.0254,-9.7437,
-3.8459,-0.25659,-3.8459,17.6921,144.8718,101.282,0.25659,-3.8459,-4.8718,-4.3591,1.282,3.3333,5.8972,-2.3079,
-3.3333,-7.4358,-6.9231,18.2053,129.8718,94.6155,-2.8206,-7.9485,-4.3586,-3.3333,2.8206,3.3333,4.8718,12.6921,
-7.949,-13.0769,-6.4104,18.2048,119.2307,87.4358,-6.4104,-9.4875,-2.3079,-0.76929,7.4358,1.282,0.76929,10.5125,
-12.5642,-16.6667,-5.8977,21.282,117.6921,85.8972,-11.5383,-8.9744,-0.76929,2.8206,12.051,3.8459,0.76929,-0.76929,
-10.5127,-20.769,-6.9233,18.7178,110.5127,84.8716,-15.6411,-11.0259,-5.3848,1.7949,4.8716,7.436,-1.7949,5.8975,
-4.1025,-11.2822,0,21.0259,114.8716,86.1538,-9.7437,-6.6665,-4.1025,0,0.5127,11.2822,-2.564,8.2051,
-12.051,-9.4871,-3.3333,13.5901,113.0769,84.3591,-14.1023,-7.4358,-3.3333,2.8206,1.282,10.0002,-1.282,2.8206,
-21.0256,-18.9744,-16.9231,1.5383,98.0769,80.5129,-25.6409,-12.3074,-7.6921,2.5642,2.5642,4.1028,-1.0256,1.0256,
-6.0256,-4.8718,-10.5129,14.1028,96.1541,84.8718,-18.718,-4.8718,-5.8972,4.3591,7.9485,11.0256,1.282,-1.282,
0,0,-6.1538,15.3848,109.231,83.0771,-16.9229,-7.1792,-4.6152,7.6924,2.0513,15.3848,-4.6152,-3.0767,
-3.3333,-0.25659,-6.4104,14.6155,106.4104,85.3845,-17.6921,-8.9744,-2.8206,12.0515,0.25659,13.0769,-6.9231,5.8972,
1.7949,12.0513,-12.0513,13.5898,106.9229,91.5386,-15.1284,-4.8721,-11.0259,2.3076,-1.7949,9.4873,-12.564,-2.3076,
13.5898,27.0513,-8.9741,12.0513,114.1025,100.2563,-11.0254,1.7949,-14.6152,-4.3589,-5.3848,13.5898,-14.1025,-1.7949,
11.5386,31.5386,-7.9487,9.4873,104.8721,96.1538,-20.2563,-3.8462,-21.2817,-10,-15.1279,3.8462,-16.1538,4.8721,
21.5386,46.5386,-2.0513,15.8975,119.4873,97.436,-11.7949,0.51269,-20,-10.2563,-8.2051,-0.5127,-9.2305,2.564,
36.5386,61.5386,-2.0513,13.3335,134.4873,96.9233,-5.1279,4.6157,-19.4873,-12.8203,-9.2305,2.0513,-12.8203,-2.564,
37.9485,66.6667,-9.7439,3.5896,119.4873,84.6155,-20.1279,3.5896,-21.5383,-9.2307,-21.0256,1.0256,-20.0002,-1.0256,
38.9744,67.1794,-5.1282,5.1282,104.4873,77.4358,-22.0515,10.2561,-18.9744,-1.5383,-14.8718,-2.0515,-14.8718,1.5383,
42.0513,72.3076,-2.0513,12.8203,101.0254,74.8716,-14.8716,11.7949,-23.0771,-10.769,-12.8203,-6.6665,-20,2.0513,
39.2305,69.4873,-6.4102,12.564,91.0254,67.9487,-19.231,7.9487,-25.3848,-18.7183,-21.7949,-7.9487,-27.436,6.4102,
37.6926,64.3591,-3.3333,10.0002,76.0254,57.6926,-21.7947,10.5129,-21.7947,-12.051,-19.7434,-4.3586,-19.7434,3.3333,
36.9231,63.0769,-1.5383,14.8718,61.0254,50.7693,-19.4871,14.3591,-19.9998,-7.6921,-14.3586,1.0256,-10.7693,-1.0256,
28.9744,53.0769,-5.8972,16.1541,47.4358,36.1541,-15.6409,13.5896,-21.7947,-9.4871,-14.1023,1.282,-11.5383,-1.282,
25.6409,44.1028,-1.0256,18.4617,46.1541,21.1541,-7.1794,17.4358,-21.5383,-9.2307,-9.2307,1.0256,-8.2048,-5.6409,
22.051,32.3079,-0.51294,13.8459,31.1541,6.1541,-6.1541,12.8206,-21.0256,-12.3079,-11.282,0.51294,-9.2307,-6.1541,
21.2822,22.3076,-2.3076,13.0771,16.1541,-2.3076,-9.4868,4.8721,-21.2817,-11.0254,-15.1279,2.3076,-18.7178,8.8459,
20.2566,22.8206,-1.7947,16.6667,21.282,-2.3079,-8.4617,8.9744,-23.8459,-12.5642,-14.1023,1.7947,-21.7947,14.1028,
18.2051,24.3589,4.8721,18.2051,21.2822,-6.9229,0.25635,16.667,-20.2563,-13.5898,-7.9487,-0.25635,-6.7947,-0.89722,
20.5127,20.5127,7.1792,22.0513,12.8203,-8.7178,-0.5127,14.8716,-18.4614,-7.6924,-9.231,0,0,-10.7695,
18.4617,12.3079,0.51294,17.949,13.8464,-8.2048,-2.051,8.718,-23.0769,-6.6667,-12.8206,-0.51294,-8.2048,1.5383,
16.1538,10.5127,1.2822,12.564,14.6152,-6.4102,4.8721,9.4873,-22.8203,-11.5386,-10.5127,-1.2822,-6.4102,-1.2822,
17.436,13.3335,3.5898,15.8975,9.231,-3.5898,6.667,11.7949,-24.1025,-15.3843,-13.8462,-6.6665,-5.6411,-10.769,
15.8975,10.769,3.5898,15.3848,2.564,-3.5898,5.1284,8.7178,-25.6411,-14.8716,-11.2822,-10.769,-10.2563,-2.564,
12.564,8.9746,2.3076,16.6665,-6.9229,-3.8462,6.4102,7.9487,-18.7178,-11.0254,-5.3848,-2.3076,-6.9229,12.436,
8.9744,7.4358,-0.76929,15.1282,-19.7434,-7.9485,3.8459,9.4871,-13.5896,-7.9485,-9.9998,0.76929,-2.8206,7.4358,
9.7437,7.1797,5.1284,10.7695,-23.0767,-10.2563,3.0771,13.3335,-12.3076,-7.6924,-7.1792,0.5127,-0.51269,-0.51269,
7.4358,3.8464,1.7952,8.4617,-27.9485,-12.5642,0.76929,7.949,-16.1536,-11.0256,-5.3845,0.76929,-3.3333,-0.76929,
9.2307,9.7434,-3.0774,8.7175,-29.2312,-10.2566,1.0256,7.1794,-14.3591,-3.5901,-3.0774,5.1282,-1.0256,2.5637,
10.769,15.8975,-1.5386,10.2563,-31.2822,-10.769,2.0513,14.3589,-15.8975,0,-4.1025,5.6411,0,0,
9.7434,11.282,-2.5642,12.8206,-36.9231,-16.9231,3.5896,15.8972,-18.4617,-7.6926,-7.1794,1.5383,1.0256,-1.0256,
10.2563,5.6411,-5.1284,14.8716,-42.0515,-21.0259,5.6411,13.333,-12.3076,-12.3076,-7.1797,0,0,7.6924,
14.8718,11.7952,1.0256,20.5129,-44.6152,-13.3333,6.6667,19.4875,-12.3074,-5.1282,-4.615,-1.0256,-2.5637,14.8718,
8.718,7.1794,1.5383,13.8459,-53.3335,-15.8977,1.0256,15.3845,-26.6667,-7.1794,-10.2566,-7.6926,-1.0256,1.0256,
10.2566,7.1794,3.5896,12.8206,-43.0769,-19.4871,3.5896,12.3079,-22.0515,-8.2053,-10.2566,-3.5896,4.6155,-7.6921,
17.4358,15.8977,4.6155,17.4358,-33.8462,-17.4358,8.2053,17.4358,-11.7947,-6.1536,-7.1794,-3.0769,-1.0256,1.0256,
16.9233,18.4614,3.5898,13.8462,-48.8462,-16.4102,5.6411,22.0513,-14.3589,-9.2305,-7.1792,-11.2817,-3.5898,4.1025,
13.0771,19.7437,1.2822,11.5386,-57.6921,-18.2051,-0.25635,16.667,-17.6919,-8.9741,-10.5127,-4.8716,5.3848,0.25635,
11.7949,18.4614,-3.5898,5.6411,-48.718,-20.5127,-1.5386,10.769,-16.4102,-3.5898,-12.8208,3.0767,1.5386,11.7949,
13.8462,14.3589,-3.0771,5.1284,-50.2563,-20,3.5898,14.8716,-15.3848,-3.0771,-7.6924,3.0771,-3.0771,18.9746,
8.9744,8.4617,-4.3591,6.4104,-65.2563,-21.7947,0.25659,12.051,-17.1794,-8.9744,-6.4104,1.282,1.282,3.9746,
11.282,5.6414,2.0515,10.2566,-66.6665,-20.5129,1.5388,9.7439,-14.8718,-5.6409,-8.718,-1.0256,1.0256,-3.0769,
14.8716,4.6152,7.6924,17.9487,-60,-21.5386,7.1797,15.8975,-15.3848,-4.6152,-10.769,-5.6411,-5.1284,6.6665,
10.2566,4.1028,2.0515,17.949,-74.3589,-22.051,6.6667,20.0002,-13.8459,-10.7693,-8.718,-2.051,1.5383,-1.5383,
9.4873,3.8462,-2.3076,15.1279,-81.7949,-12.0513,2.3076,18.7178,-10.5127,-11.0259,-6.4102,1.7949,11.5386,-1.7949,
7.1794,2.5642,-1.5383,16.9231,-68.2051,-3.5896,1.5383,17.4358,-18.4617,-10.7693,-10.7693,-3.0769,6.6667,8.2053,
3.8464,1.282,-1.282,17.6926,-63.3333,-2.8206,5.385,16.6667,-22.3074,-9.9998,-9.9998,-1.7947,1.282,7.949,
6.1538,0,-2.0513,17.436,-78.3333,-4.1025,1.0254,14.8716,-15.3848,-6.6665,-3.5898,0,4.6152,5.6411,
9.2305,-3.0771,2.564,18.9741,-88.718,-6.1538,-3.0771,14.8716,-2.564,-3.0771,8.2051,-3.0771,10.769,12.3076,
0.5127,-13.8462,-0.5127,17.9487,-93.8462,-15.8975,-5.1284,6.1538,1.0254,-5.6411,12.8203,-4.1025,10.2563,10.769,
1.5386,-10.769,-1.5381,21.5386,-97.9485,-16.9229,0,9.231,-1.0254,-3.0767,7.6924,1.5386,10.7695,0,
7.6921,-1.0256,1.0256,19.4871,-100.5127,-10.2566,5.6409,17.4358,-3.5896,-2.051,1.5383,-2.051,9.2307,-9.7434,
7.1792,-0.5127,0.5127,20.5127,-103.0769,-5.6411,7.1792,14.8716,-4.6152,-3.5898,2.564,-2.0513,7.1792,-3.0771,
3.3333,-4.8718,-5.8972,15.6409,-103.3333,-6.9231,1.7952,6.4104,-12.051,-5.3845,-0.76929,6.4104,0.76929,11.9229,
4.1025,2.0513,0,8.7178,-101.0256,-6.6665,0,8.2051,-18.4614,-3.5898,-6.1538,7.6924,-4.1025,10.2563,
6.6667,9.7434,3.0769,10.2566,-99.4871,-7.1794,1.5383,11.282,-17.4358,-1.5383,-9.2307,3.0769,-5.1282,-1.5383,
4.6152,1.0254,-3.5898,8.7178,-102.0513,-9.231,-2.0513,8.2051,-13.8462,0.5127,-5.6411,3.5898,-0.5127,5.6411,
2.3079,-1.282,-4.3591,10.0002,-101.7947,-3.3333,-4.3591,11.0256,-13.5896,2.3079,-3.8459,3.8464,1.282,8.4617,
3.3333,3.3333,-5.8972,12.051,-101.7949,1.282,-2.8206,12.5642,-16.1541,-1.282,-5.8972,1.282,-3.8459,5.3845,
8.9744,0.25659,-4.8718,7.9485,-107.436,-0.25659,-3.8464,9.4871,-10.5129,-0.25659,-2.3079,7.4358,1.7947,13.0769,
8.7178,-2.564,-6.6665,6.1538,-116.9231,-4.1025,-12.3076,6.1538,-8.7178,1.5386,-1.5386,8.2051,7.1797,12.8203,
6.9229,-3.3335,-4.8721,10,-122.8206,-4.3589,-7.436,9.4873,-12.0513,0.76904,-0.25635,0.25635,3.8462,5.8975,
14.3589,-2.0513,3.0771,9.7437,-117.4358,-2.564,1.5386,13.8462,-11.2817,1.0259,-2.564,0,-2.564,0,
15.6414,1.7952,0.76929,2.8206,-107.9485,-0.76929,-5.3845,6.9231,-9.4871,2.3079,-8.4612,5.8977,-0.76929,-2.3074,
11.0254,6.9229,-8.4614,-3.8462,-113.0769,-1.7949,-11.5386,2.3076,-13.0771,2.8203,-10.5127,1.7949,4.8716,3.8462,
11.7949,14.3589,-4.6152,-1.5386,-117.4358,1.5386,-8.2051,6.6665,-15.3848,4.1025,-9.2305,-3.0767,6.1538,10.2563,
8.4617,12.5642,-1.7952,-2.8206,-122.3079,1.282,-10.0002,5.3845,-14.1028,4.8718,-11.0256,-1.282,1.7947,2.3074,
6.1538,8.2051,-5.1279,0,-129.7434,-2.564,-10.2563,4.1025,-10.2563,1.0259,-7.1792,0,2.564,2.564,
6.6665,10.2563,-4.1025,4.1025,-129.2307,-0.5127,-5.6411,8.7178,-7.1797,0,-3.0771,0,9.7437,10.769,
6.6665,12.8208,-1.0254,-0.5127,-127.1794,3.0771,-5.6411,13.8462,-5.6411,0.51269,-4.6152,0.51269,3.5898,-4.231,
13.3335,17.436,1.5386,5.6411,-129.7437,6.6665,-3.5898,15.8975,-3.0767,-1.5386,-3.0767,2.0513,-4.1025,-13.3335,
12.0515,13.0769,0.76929,6.4104,-135.1282,4.3591,-4.3591,5.8972,-7.4358,-3.3333,-3.8459,-0.76929,-1.282,1.6665,
2.3076,9.4873,-3.8462,0.25635,-134.6152,0.25635,-5.8975,-2.3076,-10,3.3335,-3.8462,-0.25635,5.8975,14.6157,
-0.25635,13.5898,-13.0771,-1.7949,-140.2566,-0.25635,-12.0513,0.25635,-3.3335,7.9487,3.333,0.76904,4.3589,0.76904,
-2.3076,7.436,-12.564,-4.3589,-155.2566,-2.8203,-23.333,0.25635,3.8462,5.3848,7.436,-0.25635,1.7949,0.25635,
-8.9744,0.76929,-12.051,-1.7947,-168.4614,-6.4099,-28.4612,-0.76929,1.7952,4.8718,3.3333,5.8977,3.3333,8.4617,
-8.9741,6.9233,-16.1538,-0.76904,-166.4102,-4.8716,-26.9229,2.3076,-0.25635,9.4873,1.7949,12.0513,0.25635,0.76904,
-5.1282,12.3079,-11.7947,-3.5896,-157.9487,-0.51294,-25.6409,4.1023,6.6667,15.3845,5.6409,12.8206,0.51294,-0.51294,
-9.4871,5.3845,-15.6409,-6.4104,-166.9231,-7.4358,-31.5383,4.3591,4.8718,13.0769,1.7947,8.9744,-1.7947,2.8206,
-12.051,5.8977,-17.6921,-5.3845,-181.9231,-8.4612,-31.5383,8.9744,3.8464,14.6155,3.3333,10.0002,-1.282,1.282,
-10.5127,7.9487,-10,-3.3335,-180.7693,-5.3848,-32.0513,5.3848,2.3076,19.2305,2.8203,9.4873,-0.25635,0.25635,
-6.1536,5.1282,-4.6155,-1.5383,-182.0513,-10.2561,-31.282,-1.0256,3.0769,20.0002,2.0515,12.8206,1.0256,12.8206,
-4.8718,2.8206,-8.9744,-3.3333,-197.0513,-17.1794,-32.5637,-0.76929,3.3333,17.6926,2.3079,14.6155,0.76929,19.2307,
-0.51294,8.718,-9.2307,-4.1028,-184.1025,-9.7434,-33.8459,4.6155,1.0256,17.9485,0.51294,10.7693,-2.5642,4.6155,
6.1541,14.8718,-5.1282,-5.1282,-169.1025,-5.6409,-27.6921,6.1541,2.5642,16.9231,0.51294,7.6921,-2.0515,-0.51294,
2.5642,8.718,-10.7693,-1.5383,-173.3333,-18.9744,-27.1794,-0.51294,0.51294,9.2307,0.51294,4.1028,-2.5642,11.7952,
-4.3589,3.8462,-14.6152,0.25635,-188.3333,-20.769,-29.4868,-1.7949,1.7949,11.5386,4.3589,6.4106,-0.25635,23.8462,
-1.5386,0,-10.2563,-6.1538,-187.1794,-16.9233,-28.7178,0,2.0513,16.4102,4.1025,9.7437,1.0254,15.8975,
4.3591,1.282,-6.4104,-4.3591,-185.8975,-18.718,-27.9485,0.25659,-0.25659,13.0769,-0.25659,11.5383,1.282,1.7947,
-5.8975,2.3076,-8.9741,-4.3589,-191.0256,-21.7949,-28.9741,-1.2822,1.2822,12.564,6.9233,11.5386,3.3335,1.7949,
-10.7693,1.0256,-9.7434,-3.5896,-192.3076,-19.9998,-25.1282,-1.0256,7.6926,21.0256,17.4358,18.9744,4.6155,14.3591,
0,-1.5386,-9.231,0,-196.4104,-15.8975,-22.0513,0,9.2305,25.6406,13.8462,23.0767,5.6406,18.4614,
1.0256,-3.0769,-9.7434,-1.5383,-202.0513,-14.8718,-25.1282,-1.0256,7.1794,21.0256,12.3079,20.5129,7.1794,12.8206,
-7.4358,-0.76929,-8.9744,-2.3074,-208.4614,-18.2048,-28.9744,0.76929,6.9231,18.718,13.5901,21.282,6.9231,19.7439,
-7.436,-1.7949,-6.9233,-5.3848,-203.3335,-21.2822,-29.4873,1.7949,4.8716,16.6665,6.9229,21.7949,2.8203,23.8462,
0.76929,-0.76929,-3.8464,-3.8464,-191.0256,-16.6667,-27.4358,1.282,0.76929,14.1023,3.8459,19.2307,-2.8206,11.5383,
0,5.6406,-4.6157,-2.5645,-189.7439,-13.8462,-27.6924,0,1.0254,12.8203,5.1279,10.769,-5.1284,5.6406,
-3.0769,5.6409,-5.1282,-4.1028,-189.7437,-13.3333,-27.6921,-0.51294,5.6409,16.9231,5.6409,11.282,0.51294,14.3591,
-3.8462,-0.76904,-6.4102,1.2822,-184.8718,-13.0767,-30,-5.3848,2.8203,17.6924,0.76904,15.6411,1.2822,13.0771,
-4.1025,0,-6.6665,2.564,-184.1025,-12.3076,-30.769,-3.0771,2.0513,17.9487,2.564,15.8975,0,9.7437,
-6.9233,0.25635,-5.3848,-6.9233,-188.9744,-15.1284,-31.5386,0.76904,3.8462,17.1792,4.8716,13.5898,-0.25635,15.6411,
-6.1536,-0.51294,-6.1536,-7.6921,-190.769,-14.8718,-31.7947,1.0256,3.5901,16.9231,5.6414,13.8464,0.51294,20.0002,
-2.0513,1.0254,-8.2051,-3.0771,-194.8718,-9.231,-29.231,2.0513,0.5127,18.4614,3.5898,14.3589,-0.5127,12.8203,
1.7952,8.4617,-5.8972,-1.7947,-198.2051,-6.9231,-25.3845,5.385,-1.282,19.2307,0.76929,17.6926,-0.76929,7.949,
-0.25659,3.3333,-5.3845,-7.4358,-200.2563,-15.1282,-25.3845,3.3333,0.25659,18.2053,1.282,19.2307,-0.25659,10.0002,
-1.7949,-3.8462,-3.333,-1.7949,-200.2563,-13.0767,-23.333,1.7949,7.9487,25.3848,7.436,23.3335,2.8208,23.3335,
-3.5896,-2.5642,-5.6409,3.5896,-203.5898,-7.1794,-25.6409,1.5383,9.2307,27.6921,8.718,29.7434,-1.5383,28.718,
-0.76904,-1.7949,-2.8203,0.76904,-207.4358,-11.0259,-25.3848,1.7949,10,25.8975,7.9487,33.5898,-2.8203,17.1797,
-1.5383,-3.5896,-3.0769,4.1028,-207.6921,-13.3333,-30.2566,1.5383,9.7434,27.1794,9.2307,28.718,-3.5896,9.7434,
-13.0771,-10,-10.5127,6.4102,-215.1282,-9.4873,-39.7437,1.7949,7.436,26.9229,11.5386,24.8716,-1.7949,22.3076,
-16.1538,-14.1025,-8.4614,2.8208,-222.3076,-13.5898,-36.1538,-0.25635,11.0259,21.2822,7.9487,22.8208,0.25635,22.3076,
-5.8972,-6.4099,-3.3333,2.3079,-209.4871,-15.1282,-26.4099,-1.282,13.0769,27.4363,4.8718,19.7439,1.282,7.3076,
-5.1282,-6.1541,-1.0256,0.51294,-207.6924,-9.2307,-31.282,-0.51294,12.3079,37.9485,11.282,21.5383,7.6921,11.7947,
-13.3333,-16.4104,-4.6155,1.5383,-222.6924,-11.7952,-41.5383,-1.5383,15.8972,31.282,13.8459,24.1023,7.1794,24.1023,
-10.0002,-17.6926,-3.3333,2.8206,-219.7437,-15.1282,-35.1282,-2.8206,25.8972,26.9231,14.6155,25.3845,2.8206,13.5896,
-6.4106,-14.1025,1.7949,-1.7949,-204.7437,-15.1284,-27.436,-4.8721,26.9229,28.9741,16.6665,19.7437,3.333,6.9229,
-7.949,-12.0515,-1.7947,0.76929,-211.0256,-12.5642,-27.949,-0.76929,17.6921,25.3845,14.1028,16.1541,10.5129,15.6409,
-8.9746,-12.0513,-10,-0.25635,-220.7693,-14.1025,-27.9487,0.25635,9.4873,18.2051,6.4102,15.1279,5.3843,13.5898,
-2.5642,-5.6414,-3.5901,5.1282,-214.3591,-13.8464,-24.1028,1.0256,9.7434,21.0256,7.6921,15.8972,-1.0256,12.8206,
-4.3589,-4.3589,0.25635,4.8721,-216.6665,-15.6411,-24.8716,-0.25635,8.4614,15.1284,8.4614,16.667,-5.3843,13.0771,
-5.6411,-4.1025,-2.564,2.564,-219.4871,-12.3076,-21.0254,2.564,9.231,12.3076,11.2822,19.4873,-5.6411,6.6665,
-5.6409,-6.1536,-6.1536,7.1794,-216.4102,-12.3079,-20.5129,-0.51294,10.2566,14.3591,9.7434,16.4104,0.51294,5.1282,
-8.4617,-6.9231,-3.3333,5.3845,-214.6155,-13.0769,-22.3079,-3.8464,10.5125,14.6155,5.3845,16.6667,3.3333,17.6921,
-11.0256,-1.282,-0.76929,5.3845,-211.5386,-6.9231,-18.2053,0.76929,12.5637,15.1282,8.4612,23.3333,-0.76929,17.6921,
-14.8721,-6.1543,-5.1284,8.2051,-213.3335,-8.7183,-20,-2.0513,13.333,12.3076,14.8716,15.8975,2.0513,2.6921,
-12.8206,-13.3333,-5.1282,6.6667,-215.3845,-12.3074,-21.5383,-5.6409,11.7952,13.3333,16.4104,10.7693,7.6926,5.1282,
-10.7695,-13.8462,-2.0513,8.2051,-210.7693,-8.7183,-20.5127,-1.5386,11.7949,16.9229,12.3076,20,1.5386,20,
-17.9487,-22.5645,-7.6924,8.7178,-215.3848,-11.7949,-26.667,-3.5898,13.8462,15.3843,12.8203,21.0254,3.5898,23.0767,
-18.7178,-24.8721,-13.5898,5.8975,-221.7949,-16.1538,-33.5898,-5.8975,13.5898,13.0767,15.1279,18.2051,11.0254,13.0767,
-11.2817,-19.4868,-11.7949,2.5645,-214.3589,-12.3076,-30.2563,-2.0513,8.7183,14.8721,10.2563,18.4619,2.0513,6.667,
-10.2563,-24.1025,-5.6411,6.6665,-211.7949,-11.2822,-24.1025,0,10.769,16.4102,10.769,18.4614,0,12.8203,
-17.1794,-28.9744,-7.4358,13.0769,-223.3333,-18.2053,-26.4104,-4.8718,13.5896,16.6667,16.1541,19.2307,4.8718,17.6921,
-14.1025,-23.8462,-5.8975,17.1797,-228.9744,-18.2051,-19.7437,-5.3848,22.3076,23.3335,27.436,25.3848,5.3848,12.0513,
-13.3333,-25.1282,-1.0256,16.4104,-227.1794,-21.0256,-18.4617,-6.6667,20.5129,13.8459,25.1282,18.9744,4.1023,1.0256,
-18.7178,-26.9229,-1.7949,11.5386,-230,-22.8203,-27.9487,-7.436,5.5129,1.7949,11.0259,14.6152,1.7949,7.436,
-15.1279,-22.8203,-1.7949,10,-230,-17.6924,-28.9741,-6.4102,1.7949,4.3589,5.3848,16.1538,1.7949,17.6924,
-13.0769,-24.3591,-1.282,12.5642,-223.8462,-15.1282,-25.8977,-10.0002,1.7947,1.282,2.3079,6.4104,2.3079,5.3845,
-13.5898,-23.8462,0.25635,14.6152,-216.6665,-11.0254,-22.3076,-5.8975,-0.25635,0.25635,4.8721,8.4614,0.76904,5.8975,
-13.0771,-18.2051,1.7949,17.1792,-220.7693,-6.4102,-20.2563,-0.25635,0.25635,5.3843,6.4102,18.7178,-7.436,20.8975,
-10.5125,-12.5637,1.282,20.2566,-222.8203,-8.4612,-20.7693,-1.282,4.8718,13.0769,4.8718,18.2053,-8.9744,20.2566,
-7.9487,-11.0254,0.76904,18.2051,-215.6411,-11.5386,-19.7437,-0.76904,10,20.2563,8.4614,18.2051,-2.8203,5.2566,
-10,-16.6665,-1.2822,15.1284,-214.6155,-11.5386,-21.7949,1.2822,7.9487,17.1797,9.4873,20.769,-4.8716,10,
-11.7947,-18.9744,-1.0256,11.282,-217.9487,-11.282,-22.5642,1.0256,7.6921,16.4104,9.2307,19.9998,-2.5642,25,
-9.2305,-14.3589,-2.0513,9.7437,-223.0767,-11.7944,-23.0767,-5.1279,5.1284,23.5898,7.1797,19.4873,2.0513,23.5898,
-4.3589,-6.9229,-5.3848,19.231,-221.282,-5.3848,-20.769,-0.25635,8.4614,26.9229,10,27.9487,0.25635,17.6924,
-6.6667,-9.2307,-3.5896,21.5383,-212.8206,-3.5896,-18.4617,3.5896,12.3079,25.6409,14.8718,27.6921,-3.5896,24.6155,
-8.4614,-15.1284,-0.25635,18.2051,-208.9744,-10.5127,-18.7178,0.25635,10,24.3589,13.5898,18.2051,-2.3076,19.7437,
-4.1025,-10.769,-1.0254,18.4614,-208.2051,-12.8203,-18.4614,-0.5127,9.7437,16.9233,11.2822,20,0.51269,11.2822,
-4.1025,-5.6411,0.5127,23.5898,-202.5642,-11.2822,-16.4102,-3.0771,13.8462,11.2817,15.3848,26.1538,-0.51269,20.5127,
-4.8721,-8.9746,0.25635,28.4614,-192.5642,-14.1025,-15.1284,-6.4102,15.6411,18.2051,16.6665,21.2817,-0.25635,18.7178,
-2.8206,-14.6155,-0.76929,22.3079,-187.4358,-16.6667,-14.6155,-3.8459,13.5896,20.7693,13.0769,17.1794,0.76929,9.9998,
-3.8459,-12.0515,-1.7947,21.7947,-194.1025,-16.6667,-14.1028,-2.3079,15.6409,17.1794,14.1028,22.8206,1.7947,21.7947,
-6.6667,-12.8206,-0.51294,26.1536,-204.1028,-18.9744,-12.3079,-9.7439,18.9744,19.9998,19.9998,23.0769,0.51294,29.7434,
-5.8977,-16.1541,0.25659,21.282,-199.7437,-18.2053,-14.1028,-7.4358,16.6667,20.2566,17.6921,16.6667,-0.25659,14.7434,
-3.0769,-8.718,-3.5896,16.4104,-191.282,-10.2561,-19.4871,0.51294,11.282,11.282,10.7693,15.3845,-0.51294,11.7952,
-6.9231,-5.3845,-3.8459,17.6926,-206.282,-0.76929,-17.6921,-1.282,17.6926,11.5383,16.1541,17.6926,0.76929,21.282,
-15.1282,-15.6409,-3.3333,19.7434,-221.282,0.76929,-16.1541,-4.3591,22.8206,16.1541,21.282,16.1541,-0.76929,7.4358,
-12.8206,-14.8718,-3.5896,20.0002,-233.3333,1.5383,-16.9231,-1.5383,19.4871,16.4104,16.9231,21.0256,-3.0769,6.6667,
-9.4873,-10.5127,-2.3076,18.2051,-218.3333,2.3076,-15.1284,-3.8462,16.1538,13.5898,15.6411,25.3848,-4.3589,21.6667,
-7.1797,-6.1538,-2.564,21.5386,-210.2563,2.564,-16.9233,-3.5898,14.8716,13.8462,16.4102,22.0513,-5.6411,27.1792,
-5.8975,-1.7949,-5.3848,17.1797,-213.0769,-1.2822,-22.8203,1.2822,12.564,15.1284,12.0513,20.2563,-7.436,12.1792,
-6.4104,-1.282,-3.3333,16.6667,-214.1025,-3.3333,-19.7434,1.282,14.1028,15.1282,15.1282,23.3333,-4.8718,10.0002,
-9.2307,-4.1028,-1.5383,21.5383,-211.7949,0.51294,-16.9231,-0.51294,14.8718,8.718,19.9998,14.8718,-4.1028,23.0769,
-11.0256,-5.3845,-2.8206,20.2566,-210,0.25659,-19.7434,-0.25659,13.0769,4.3591,15.6409,6.4104,-4.8718,8.9744,
-7.4358,-1.282,0.25659,23.8459,-210.5129,-0.25659,-15.6409,-0.25659,16.1541,12.051,14.6155,14.6155,-1.282,11.0256,
-5.1284,-3.0771,2.0513,23.0767,-216.9231,-2.564,-12.3076,-2.0513,18.9741,16.9229,20,20.5127,-3.5898,26.0256,
-4.6152,-6.6665,2.564,18.9746,-220.5127,-8.2051,-17.436,-2.564,20,12.3076,16.9233,22.564,-11.7949,23.5898,
-8.4617,-7.9485,0.25659,18.718,-218.718,-9.9998,-18.718,-0.25659,24.3591,16.6667,9.4871,28.9744,-7.9485,12.0515,
-14.1023,-10.5129,-3.8459,16.6667,-218.7178,-7.4358,-18.2048,-1.282,26.4104,26.9231,16.1541,25.8977,1.282,21.282,
-11.0256,-7.4358,-0.76929,17.6926,-215.6409,-4.8718,-21.7947,0.76929,22.8206,28.9744,20.7693,23.8464,-3.3333,26.9231,
-10.2563,-6.1538,0,14.8716,-212.8206,-9.7437,-18.9746,0,22.0513,22.564,12.8203,22.564,-10.2563,11.9231,
-7.6924,-6.1538,2.0513,18.9741,-206.1538,-9.7437,-7.6924,-2.0513,24.6152,21.0254,10.769,16.4102,-3.5898,8.7178,
-9.7434,-7.6921,1.5383,23.0769,-208.2051,-7.1794,-13.3333,-2.051,15.3845,13.8464,13.8464,9.7434,-1.5383,19.4871,
-15.6411,-9.4873,-1.7949,17.6924,-213.5898,-9.4873,-22.3076,1.7949,13.5898,7.4355,10,12.0513,-8.4614,24.3589,
-10.5127,-2.8203,-1.7949,18.7178,-199.2307,-8.9741,-15.1284,1.7949,19.7437,11.0259,5.3848,16.1538,-11.0254,22.3076,
-7.9487,-0.25635,0.25635,20.2563,-192.0513,-6.4102,-9.4868,-6.9229,15.6411,12.0513,9.4873,11.5386,-5.8975,13.5898,
-12.0513,-5.8975,2.3076,19.7437,-201.282,-6.9229,-17.1797,-8.4614,12.564,7.436,13.0771,8.4614,-2.3076,6.9229,
-9.7437,-2.0513,-0.5127,22.0513,-194.3589,-3.0767,-21.0254,0.51269,16.4102,12.8208,11.7949,18.9746,-1.5386,17.436,
-11.5383,-1.282,-3.8464,15.1282,-190,1.282,-20.2566,-1.282,20.2561,17.6921,11.5383,21.7947,-4.8718,28.4617,
-10.0002,-1.282,-1.7952,17.6921,-192.5642,1.282,-16.1541,-2.3079,23.8459,15.6409,13.0769,14.6155,-5.8977,25.3845,
-6.4102,1.2822,-1.7949,21.2822,-187.9487,-6.4102,-15.6411,-1.2822,19.7437,15.6411,11.5386,16.1538,-3.8462,16.6665,
-6.9231,-0.76929,0.76929,19.2307,-186.9231,-8.9744,-15.6409,-1.7947,17.1794,21.282,14.6155,25.8972,-0.76929,16.1541,
-6.4104,0.25659,-0.25659,22.3079,-188.4617,-1.282,-14.1028,-0.76929,22.8206,21.7947,17.1794,22.3079,-1.7947,15.6409,
-6.4102,1.7949,-3.333,18.7183,-185.8972,-3.8462,-13.5898,-1.7949,20.2563,15.6411,14.1025,14.1025,-3.8462,17.1797,
-10.2566,-1.5383,1.5383,19.4871,-190.2563,-15.3845,-16.9231,-2.5642,11.7947,11.7947,12.8206,18.9744,-2.5642,30.2566,
-13.0769,-6.4104,3.8459,24.8718,-194.1025,-16.6667,-18.718,-3.8459,12.0515,9.4871,13.0769,15.6409,-4.3591,29.4871,
-7.4358,-2.8206,1.7947,25.3845,-182.8206,-6.9231,-12.5642,-3.3333,16.6667,9.4871,15.6409,13.0769,-1.7947,16.1541,
-14.6152,-1.2817,0.25635,20.7695,-181.7947,-7.4355,-13.5898,-1.7949,12.0513,6.9233,13.0771,15.1284,-0.25635,9.4873,
-24.1028,-6.1541,1.0256,16.4104,-189.7437,-16.4104,-20.0002,-1.0256,9.2307,5.6409,11.7947,12.3079,-5.1282,16.9231,
-16.667,-5.8975,3.8462,21.7949,-184.3591,-16.667,-19.231,-3.8462,11.0254,7.9487,13.5898,12.564,-7.436,26.4102,
-10.5129,-4.3591,4.3591,24.3591,-174.6155,-12.0515,-13.5896,-10.0002,12.0515,9.4871,12.5642,14.6155,-4.3591,27.4358,
-12.051,-1.282,1.282,16.6667,-167.9485,-15.6409,-4.8718,-9.9998,8.4617,3.3333,5.3845,9.4875,-8.4612,18.2053,
-10,7.436,-1.2822,14.1025,-162.3076,-14.6152,-6.4102,-5.3848,5.3848,1.2822,3.3335,7.436,-11.0254,11.0259,
-13.0769,2.8206,-2.8206,12.0515,-170,-14.1028,-20.7693,-6.9231,7.4358,4.8718,9.4871,8.4617,-2.8206,9.4871,
-12.5642,-2.8206,1.282,17.6921,-175.6411,-20.2566,-19.7434,-6.4104,8.4617,4.8718,11.0256,6.9231,-1.282,11.0256,
-9.4868,1.2822,0.25635,20.2563,-172.564,-21.7949,-7.4355,-1.7949,5.8975,-0.25635,5.3848,4.8721,-10,7.436,
-11.0256,2.3079,-4.3591,13.5896,-177.1794,-17.6921,-7.4358,-0.76929,6.4104,0.76929,6.9231,6.9231,-11.0256,3.8459,
-8.4614,2.8203,-3.3335,15.1284,-175.6411,-15.6411,-10,-2.8203,7.436,7.9487,8.9746,11.0259,-8.4614,15.1284,
-8.9744,0.25659,-0.25659,16.1541,-170.5127,-21.282,-2.8206,-5.3845,6.4104,4.3591,5.8972,12.0515,-8.4617,27.4358,
-14.1028,-0.25659,5.8972,17.1794,-173.0769,-23.3333,-2.3079,-3.8459,9.4871,-1.7947,9.4871,7.9485,0.25659,25.8972,
-17.949,1.0256,1.0256,13.3333,-176.4104,-23.0769,-16.9231,-4.6155,2.051,-7.1794,4.6155,3.0769,-1.0256,11.7947,
-10.5127,3.8462,3.3335,16.1538,-171.5386,-14.1025,-10,2.3076,-2.3076,-3.8462,2.3076,5.8975,-6.9229,11.0254,
-10.2563,0,3.0771,24.1025,-173.3333,-15.3843,1.0259,0,-3.0767,-5.6406,1.0259,1.5386,-12.8203,13.3335,
-8.9741,4.3589,5.3848,25.8975,-165.3845,-20.2563,-1.7949,-1.7949,1.7949,-3.8462,5.3848,6.9233,-5.3848,17.1797,
-11.0256,3.3333,3.3333,19.2307,-162.8206,-25.3845,-13.5896,-3.8459,0.25659,-1.282,4.8718,7.4358,-0.25659,15.1282,
-10,1.7949,-0.25635,20.769,-160.7693,-23.8462,-8.9746,0.25635,-2.3076,0.76904,1.7949,6.4102,-1.2822,13.0771,
-7.436,2.3076,2.8203,21.7949,-159.2307,-22.3076,-3.3335,-2.3076,-0.25635,0.25635,2.8203,10.5127,-5.3848,18.7178,
-11.0256,0.76929,3.3333,24.3586,-162.8208,-25.3848,-6.9231,-5.385,2.3074,-0.76929,5.8972,14.1023,-6.9231,22.3074,
-10.5127,0.25635,1.7949,26.9229,-162.3076,-26.4104,-3.8462,-1.2822,2.3076,-0.25635,5.8975,12.564,-10,15.6411,
-6.1538,0,2.5645,24.6157,-156.9229,-23.5894,2.5645,-3.0767,-2.0513,1.0259,0,9.7437,-16.4102,7.1797,
-2.8206,2.8206,3.8464,27.949,-148.4614,-18.2048,2.3079,-1.282,-4.3586,1.282,-1.7947,14.1028,-10.5129,20.2566,
-7.6926,3.0769,1.5383,24.1023,-153.8464,-18.4617,-2.5642,2.051,-5.1282,-3.5901,1.0256,13.3333,-1.0256,30.2561,
-11.5386,9.4873,0.25635,22.3076,-158.7178,-16.6665,-1.2817,5.3848,-2.3076,-1.7949,3.8462,15.1284,-0.25635,17.6924,
-16.9229,9.7437,0,22.564,-151.282,-22.0513,-3.0767,2.0513,-0.5127,0,2.0513,13.8462,-1.0254,8.2051,
-21.0254,-2.0513,0.5127,23.0771,-160.5127,-32.3076,-11.2822,-5.6411,3.5898,-0.5127,7.6924,8.7178,3.0771,18.4614,
-19.7439,-3.3333,-0.76929,26.9231,-175.5127,-31.5386,-20.2566,-3.8464,8.4612,1.282,13.5896,9.4871,0.76929,22.3074,
-14.3586,5.1282,-3.0769,19.4875,-167.6921,-27.6921,-17.4358,1.5388,1.0256,-1.0256,4.1028,7.1794,-6.6663,7.3074,
0.64136,19.231,0.25635,18.7178,-152.6921,-20.769,-2.8203,5.8975,-7.9487,-0.25635,-2.3076,7.436,-3.8462,14.1025,
6.9229,18.7178,-0.25635,17.6924,-137.6921,-25.3848,0.25635,-1.7949,-13.5898,0.25635,-1.7949,4.8716,-2.3076,29.1025,
3.0769,11.7947,-0.51294,14.3591,-122.6921,-37.9487,0.51294,-7.6921,-14.3591,-0.51294,-1.0256,3.5896,0.51294,25.6409,
3.0771,13.8462,0,17.436,-107.6921,-44.6152,2.5645,-5.6406,-15.3843,-3.5894,-3.5894,0.51318,0,10.6409,
5.8972,13.0769,3.3333,21.7947,-92.6921,-42.8206,6.4104,-5.8977,-13.5896,-2.3079,0.76929,2.3079,-8.4617,-0.76929,
2.3076,-1.2822,3.3335,22.8203,-99.7437,-51.0256,3.8462,-15.1284,-16.6665,-8.4614,1.2822,2.3076,-16.1538,2.3076,
1.0256,-1.0256,4.1023,25.1282,-103.5898,-53.3335,6.1536,-12.3079,-14.8718,-10.2566,3.0769,2.5642,-4.1028,4.6155,
-3.3333,3.8459,4.3591,21.7947,-102.3076,-51.5386,5.3845,-5.3845,-12.0515,-5.8977,3.3333,2.8206,-2.3079,2.3079,
-1.5386,1.5386,7.1797,29.231,-98.9744,-51.282,6.6665,-7.6924,-8.7178,-2.0513,4.1025,4.6152,-6.6665,12.3076,
-0.51294,-6.6667,2.5642,28.2053,-99.4871,-56.4102,7.6926,-16.4099,-10.2561,-4.1023,2.5642,4.6155,0.51294,21.0256,
-0.25659,-3.3333,2.3079,24.8718,-96.6665,-53.5896,8.4617,-12.5642,-12.5642,-5.8972,0.25659,3.8464,2.8206,13.5896,
1.7949,1.2822,12.0513,32.0513,-93.0769,-44.8718,11.5386,-2.3076,-10,-2.8203,-1.2822,1.2822,-5.8975,6.9233,
0,0.5127,13.8462,29.7437,-95.8975,-45.6411,11.2822,-3.0771,-4.6152,-1.0259,0,1.0254,-1.5386,12.3076,
-1.5383,4.1028,6.6667,20.0002,-98.4614,-53.8462,3.5896,-9.2307,-10.2566,-3.5896,-3.0769,1.5383,5.6409,7.6921,
6.1541,9.7434,6.1541,20.0002,-94.8718,-53.3333,7.6921,-6.6667,-10.7693,-2.051,-2.5642,1.5383,2.5642,-1.5383,
2.8208,2.8208,4.8721,20.7695,-96.6665,-50.5127,7.9487,-6.4102,-6.4102,-0.25635,-2.3076,-1.7949,0.25635,0.76953,
-7.1792,0,2.0513,16.9233,-100.5127,-51.7947,3.0771,-9.2305,-1.5381,2.0513,-1.0254,8.2051,0,15.7695,
-6.9231,4.3591,1.282,13.0769,-103.3333,-54.6155,8.4617,-10.0002,-1.282,0.76929,-0.76929,11.5383,-8.4617,16.1541,
-0.25659,5.8972,0.76929,18.718,-103.8462,-52.0513,14.6155,-6.9231,-3.8459,0.25659,-0.76929,3.3333,-10.5129,5.3845,
-2.8208,3.333,-1.2822,21.7949,-109.4873,-51.5386,8.9741,-6.9233,-5.8975,0.25635,2.3076,5.3843,-0.25635,6.4102,
-8.2053,1.0256,-2.0515,21.5383,-109.231,-53.3335,8.718,-7.1794,-5.6414,-1.0256,2.5642,11.282,2.051,8.2048,
-6.4104,4.3586,-0.76929,24.3586,-94.6155,-50.5129,18.718,-3.3333,-0.76929,0.76929,1.7947,6.9231,-1.7952,4.3586,
-6.9229,0.25635,-0.76904,23.3335,-94.6152,-49.4871,16.667,-5.8975,1.2822,1.2822,5.8975,-0.25635,0.25635,-0.25635,
-6.4102,0.76904,-2.8203,24.3589,-103.3333,-48.4617,12.0513,-4.3589,-0.76904,1.7949,8.4614,2.8203,1.7949,-1.7949,
-6.1538,3.0771,-6.1538,19.4873,-102.0513,-49.7437,12.3076,-1.5386,0,0,5.6411,4.1025,-2.0513,9.7437,
-7.6924,-1.5386,-3.5898,17.436,-95.3845,-54.3589,10.769,-6.1538,2.564,0,6.6665,0,0.5127,23.5898,
-5.3848,-0.25635,-1.7949,21.7949,-94.1025,-53.5896,7.436,-8.9741,-2.3076,1.2822,8.4614,0.25635,2.3076,13.5898,
-2.5642,3.0769,-1.5383,19.4871,-100.5129,-47.6924,9.7434,-5.1282,-1.5383,3.0769,7.1794,3.5896,-1.0256,1.0256,
-4.6157,0.5127,-1.5386,21.0254,-106.6667,-48.718,10.769,-0.5127,-0.5127,0.5127,4.1025,3.0767,-8.7183,7.6924,
-5.6411,0,-5.1284,22.0513,-100,-52.8206,8.7178,0,-4.1025,1.0259,5.1284,2.564,-10.769,14.3589,
-1.5383,1.5383,-4.6155,19.4871,-97.436,-52.3079,8.718,-2.5642,-2.5642,2.5642,4.6155,2.5642,-12.8206,4.1023,
-0.76904,2.8208,-0.76904,24.3589,-104.8718,-51.0256,12.564,-4.3589,-0.25635,1.2822,0.25635,0.76953,-12.564,0.76953,
-2.8206,5.3845,-1.7947,25.8972,-100.7693,-48.9744,15.6409,-4.8718,-3.3333,2.3079,4.3591,1.7947,-2.3079,15.7695,
-4.6155,7.6921,-7.1794,22.5642,-98.4614,-48.718,6.1541,-6.1541,-5.1282,1.0256,6.1541,4.6155,-1.0256,17.4358,
-4.6155,2.0515,-5.1282,25.1282,-113.4614,-48.718,0.51294,-0.51294,-0.51294,1.5383,4.1028,5.6409,-8.2053,9.7434,
-4.3591,-2.8206,2.3079,26.9231,-113.0769,-52.0513,6.9231,0.76929,-0.76929,0.76929,3.8464,-2.8206,-9.9998,12.0515,
1.0256,4.6155,7.6926,29.7439,-98.0769,-50.769,13.3337,-2.5637,-3.0769,-2.5637,8.718,-1.0256,-1.0256,16.9231,
-1.7952,-0.76929,1.282,26.4104,-83.0769,-58.2051,8.4617,-7.949,-4.3591,-10.5129,5.8972,0.76929,2.8206,8.9744,
-1.5383,-0.51294,0.51294,25.6414,-81.0256,-60.5127,7.1794,-7.1794,0.51294,-8.718,4.6155,-2.5642,2.5642,4.1028,
-0.76929,7.949,2.3079,22.3079,-76.6665,-54.6152,8.9744,-4.8718,0.76929,-5.3845,6.9231,-1.7947,-4.3591,1.7947,
-5.1284,3.5898,1.5386,21.5386,-80.5129,-54.8718,10.769,-1.5386,-2.564,-5.6411,9.7437,6.1538,-7.6924,14.3589,
-6.1538,-3.0771,1.5386,29.7437,-88.2051,-58.4617,13.3335,-3.5898,0,-1.5386,11.2822,8.2051,0,29.3589,
-3.5898,-6.1538,0,28.2051,-88.7178,-59.4871,10.7695,-11.2817,5.1284,0,10.7695,3.0771,-0.5127,23.0771,
-2.0513,-5.6411,2.0513,27.6924,-90.2563,-56.4102,9.231,-4.1025,9.231,-2.0513,11.2822,9.231,-6.6665,8.0771,
-7.4358,-5.3845,0.76929,27.4358,-96.6667,-57.6924,7.9485,-1.282,4.3591,-0.76929,9.4871,13.5896,-2.8206,14.1023,
-7.6924,-8.7183,-2.0513,23.0767,-97.949,-64.6155,7.1792,-12.3076,0,0,8.7178,5.6411,1.0254,18.9741,
-4.1028,-9.2307,1.5383,28.2053,-90.2563,-65.1282,8.718,-9.7434,1.0256,-1.5383,9.7434,4.1023,-1.0256,4.6155,
-10.7693,-12.3079,1.0256,27.1794,-90.7693,-63.5898,8.2053,-8.718,0.51294,-8.718,8.2053,6.1541,-0.51294,5.6409,
-5.6411,-12.3076,0,26.6665,-93.8462,-65.1282,9.7437,-13.8462,2.564,-10.769,6.6665,4.1025,0,20.6409,
-1.282,-9.4871,0.25659,28.4617,-93.0769,-68.4614,9.4871,-13.5896,5.3845,-7.9485,5.8977,0.25659,-0.25659,18.718,
-10.5127,-10,7.9487,27.9487,-92.0513,-70,10,-11.0254,6.9233,-12.0513,7.9487,-1.2822,6.9233,3.718,
-4.3591,-5.8972,11.0256,28.9744,-87.4358,-67.4358,11.0256,-13.0769,5.8977,-17.6924,7.4358,-2.8206,2.8206,8.9744,
7.1794,-2.5642,5.6414,26.1541,-83.5896,-66.1538,9.2307,-13.8459,2.5642,-14.3586,7.1794,-6.6667,-2.5642,15.8977,
2.0513,-3.5898,7.6924,29.7437,-83.5898,-64.6155,10.769,-5.6411,-2.0513,-12.3076,9.231,-6.1538,9.231,3.5898,
0.5127,-1.0259,10.2563,34.3589,-85.1282,-58.9744,13.3335,-1.0259,-2.0513,-14.8718,10.2563,2.564,9.7437,-0.5127,
3.8462,-2.3076,5.3848,22.3076,-89.4871,-58.7178,8.4619,-7.9487,-3.333,-15.1279,7.9487,2.3076,-2.3076,5.8975,
0.5127,-2.564,6.1538,22.0513,-88.718,-57.9487,8.2051,-7.6924,-4.1025,-11.2822,7.6924,-0.5127,7.6924,17.436,
-4.8718,-2.3079,6.9231,31.0256,-86.9231,-55.1282,14.1028,-2.8206,0.76929,-13.0769,11.5383,-0.76929,13.0769,17.6921,
-2.0513,-2.564,2.564,28.2051,-88.2051,-53.8462,12.8203,-5.1284,2.0513,-18.4617,12.3076,-2.0513,3.0767,10.2563,
-1.7947,-0.25659,0.25659,25.3845,-86.9231,-57.6921,7.949,-5.3845,-4.8718,-19.2307,3.3333,0.76929,3.8464,14.6155,
-9.7434,-3.0769,0.51294,29.2307,-88.2051,-59.4871,11.282,-0.51294,-5.1282,-19.4871,0.51294,1.0256,7.6926,17.949,
-10.5127,-4.3589,1.7949,32.564,-89.4873,-53.0769,14.6152,2.3076,-1.7949,-22.3079,10,-2.3076,7.436,7.9487,
-5.6411,-5.1279,2.0513,30.7695,-84.1025,-53.8459,12.3076,-2.0513,-5.1279,-24.6152,7.1797,3.0771,3.0771,4.6152,
0,-4.6152,6.6665,31.7949,-76.9231,-56.4102,15.3848,-1.0254,0,-17.9487,4.6152,13.3335,-3.5898,12.8208,
-4.8716,-5.8975,2.3076,32.0513,-82.3076,-56.6667,11.0259,-2.8203,2.8203,-14.6152,1.7949,2.3076,-1.7949,10,
-5.6411,-3.0767,-2.0513,31.7949,-86.1538,-50.2563,9.7437,-1.5386,3.0771,-9.7437,3.0771,1.5386,13.2051,17.436,
-2.8206,-3.8464,-0.76929,32.051,-86.9231,-51.0256,11.5383,-0.76929,0.76929,-7.4358,6.4099,13.5896,9.9998,24.3586,
-5.8972,-6.4099,-1.282,28.9744,-79.7434,-57.1794,10.5129,-4.3586,1.282,-9.4871,7.4363,12.0515,2.3079,14.1028,
-9.7434,-8.718,-2.0515,23.5896,-76.4102,-63.0769,7.1794,-9.7434,4.1028,-12.3079,3.0769,2.0515,3.0769,4.6155,
-3.0771,-8.2051,0.51269,26.1538,-84.6155,-63.5898,6.6665,-10.2563,0,-16.9229,3.5898,1.5386,0,6.6665,
1.7949,-7.4355,2.3076,25.3848,-84.3589,-59.7434,8.9746,-10,-1.7949,-22.8203,8.4619,2.3076,-7.9487,5.8975,
-2.8206,-5.8972,2.8206,27.4358,-73.5896,-60.7693,11.5383,-10.5129,2.8206,-20.7693,8.4617,4.3591,-6.9231,5.3845,
-4.3586,-3.8459,0.76929,31.0256,-76.6665,-63.3333,7.4363,-9.9998,-0.76929,-13.5896,7.4363,8.9744,1.7952,9.4875,
-0.25635,-5.8975,3.8462,31.0259,-83.8462,-61.282,0.25635,-10.5127,-1.2822,-10.5127,5.8975,8.9746,7.436,12.0513,
0.51294,-9.2307,4.6155,34.3591,-81.0256,-65.6411,-0.51294,-15.3848,3.0769,-13.8459,1.0256,1.5383,-1.5383,5.1282,
-1.0259,-5.1284,3.5898,31.2822,-75.3845,-66.1538,5.6411,-15.8975,1.0259,-16.4102,3.0771,1.5386,-10.2563,1.0259,
0.51294,4.6155,-0.51294,21.5383,-72.8206,-51.1538,2.5642,-12.3079,-10.7693,-17.4358,1.0256,1.0256,-10.7693,4.6155,
12.564,19.6155,1.2822,27.436,-67.436,-36.1538,5.8975,-0.25635,-8.9746,-14.1025,0.25635,-4.8721,-5.3848,13.0767,
14.1028,31.5383,1.282,28.4617,-80.769,-21.1538,2.8206,0.76929,-6.9231,-19.7434,-0.76929,-12.5642,-8.4617,8.9744,
16.4104,45.6414,1.0256,28.2053,-89.2307,-6.1538,-3.5896,4.6155,-1.0256,-18.4612,1.5388,-6.6667,-4.6155,9.7439,
22.564,57.9487,-2.0513,21.5386,-92.3079,8.8462,-7.1797,10.2563,2.0513,-17.9487,-3.5898,-9.231,-4.1025,2.564,
34.8718,72.9487,2.5642,26.1536,-95.3848,23.8462,-0.51294,18.9744,0.51294,-15.8977,-4.1028,-6.6667,-6.1541,-2.0515,
37.1794,87.9487,-0.76929,24.3591,-95.6409,38.8462,-2.8206,23.3333,-7.4358,-15.1282,-5.8972,0.76929,-16.1536,6.4104,
40.5127,102.9487,-2.564,19.4873,-89.2307,53.8462,-2.564,31.2822,-9.231,-14.8721,-9.7437,2.564,-15.8975,21.4104,
49.2307,117.9487,0.51294,26.1541,-92.8206,68.8462,-0.51294,39.4871,-13.3333,-21.5383,-18.4617,-0.51294,-14.3591,29.2307,
52.3076,132.9487,1.5386,28.7178,-100.5127,83.8462,-2.0513,42.564,-16.4102,-25.6411,-20,-1.5386,-20,18.4614,
51.282,138.9744,1.5383,28.2053,-101.0256,86.6667,-1.5383,45.1282,-16.9231,-23.5896,-17.4358,-4.1023,-21.5383,13.8464,
51.2817,136.9229,0,28.7178,-97.436,93.333,0,46.1538,-20,-27.1797,-21.0259,-6.1538,-18.4619,16.9229,
50,132.564,2.3076,28.4614,-105.3845,98.7178,-2.3076,42.3076,-16.6665,-30.5129,-17.6924,-7.436,-14.6152,16.1538,
46.4104,130.0002,6.4104,30.5129,-119.7434,101.282,-6.4104,42.3079,-13.5896,-27.9487,-14.6155,-9.9998,-17.1794,13.0769,
43.5898,131.2822,4.1025,26.1538,-117.4358,102.564,-4.1025,46.6665,-17.436,-22.564,-16.4102,-4.6152,-23.5898,17.9487,
40.769,129.4868,1.7949,25.3843,-118.718,99.7437,-1.7949,45.3843,-14.6157,-20.2563,-15.6411,-3.8462,-29.4873,16.6665,
44.1028,127.1794,3.5896,35.3845,-124.6155,96.9231,-4.6155,43.0769,-5.1282,-16.4104,-13.3333,-3.5896,-24.6155,10.7693,
39.7437,117.6924,-0.76904,25.8975,-117.6924,87.9487,-8.9746,38.2051,-8.4614,-16.6665,-15.1284,0.76904,-19.7437,17.6924,
34.3591,112.8206,-2.5642,21.5383,-113.3335,84.6155,-6.6667,41.5383,-9.2307,-8.718,-10.2566,2.5642,-16.4104,27.1794,
28.9741,99.7437,-2.3076,26.9229,-128.3335,78.2051,-9.4873,42.3076,-6.9233,-2.3076,-11.5386,2.3076,-17.1797,17.6924,
18.9744,84.7437,-5.6409,22.5642,-143.3335,63.2051,-17.9485,33.8464,-14.3591,-11.7947,-16.9231,5.6409,-20.5129,8.2053,
16.6667,69.7437,-4.8718,22.8206,-139.7437,49.9998,-14.1028,33.0769,-10.0002,-19.2307,-13.0769,4.8718,-18.718,17.6921,
16.6667,61.7947,-0.76929,27.4358,-141.7949,44.3591,-10.0002,31.0256,0.76929,-15.1282,-11.0256,-4.3591,-17.6921,12.5642,
15.6409,60.2566,3.3333,34.6155,-151.0256,42.3079,-10.5129,26.4104,0.76929,-8.4617,-10.5129,-2.3074,-21.282,-0.76929,
8.9744,53.5896,0.25659,34.6155,-160.2563,36.1541,-12.5642,24.3591,-3.3333,-15.1282,-11.5383,-0.25659,-26.4104,6.4104,
3.8459,44.3591,-0.76929,29.9998,-164.3589,29.4871,-14.1028,24.8718,0.76929,-16.6667,-9.4871,-2.8206,-19.2307,14.6155,
3.3333,42.8206,-0.76929,30.5129,-160.769,30.5129,-16.1536,24.8718,0.76929,-9.9998,-3.3333,-5.8972,-11.5383,5.3845,
2.8203,41.7949,-0.25635,25.8975,-161.282,26.4102,-17.1797,22.3076,-2.8203,-11.5386,0.25635,-7.436,-18.2051,3.3335,
2.564,41.0259,0,18.4614,-163.5896,17.436,-17.9487,16.9233,0,-16.9229,-5.6411,-2.564,-25.6411,8.2051,
2.0513,40,-2.564,18.9746,-162.0513,18.9746,-20,16.4102,6.1538,-15.8975,-6.6665,-2.0513,-20,7.6924,
2.3076,35.6411,-2.3076,20.2563,-162.3076,20.2563,-19.2305,20.7695,8.9746,-7.4355,-2.3076,-6.9229,-18.2051,5.8975,
2.0513,32.8203,-2.0513,18.4614,-165.1282,11.7949,-19.4873,18.9741,5.6411,-4.1025,-6.6665,-5.1284,-24.6152,2.564,
-0.25635,33.5898,0.25635,15.6411,-165.3845,10.5127,-18.2051,15.6411,7.9487,-4.3589,-6.4102,-2.3076,-19.231,3.8462,
0.25635,30.5127,-0.25635,19.2305,-162.8206,12.564,-15.1284,14.6152,10,-3.3335,-1.7949,-3.8462,-12.5645,7.9487,
2.3076,23.8462,-4.8716,21.2822,-157.6924,6.9229,-13.5898,10.5127,8.4614,-2.8203,-2.3076,-4.8716,-17.6924,2.8203,
1.282,17.1794,-1.282,19.7434,-156.6667,1.282,-10.5129,8.9744,11.5383,-3.3333,-2.8206,-3.8459,-17.1794,3.8459,
-3.8462,11.5386,0.76904,24.3589,-159.7437,-0.76904,-12.564,8.9741,13.5898,-2.8203,0.76904,-3.3335,-10.5127,16.6665,
-5.6409,9.2307,-6.1541,25.1282,-157.436,0.51294,-14.3591,9.2307,14.8718,-0.51294,4.1023,-2.0515,-10.2566,15.8972,
-5.6409,6.6667,-8.2048,23.5901,-155.3845,-1.0256,-14.8718,11.7952,13.8464,1.0256,1.5388,-2.051,-14.3586,6.1541,
-6.1538,5.6411,0,23.5898,-150.2566,-5.6411,-15.3848,16.4102,14.8716,6.6665,-1.0259,0,-7.1797,12.8203,
-5.6409,7.1794,0.51294,19.4871,-145.1282,-3.0769,-14.3591,15.3845,13.3333,10.2566,-0.51294,-3.0769,-2.5642,19.4871,
-4.1025,17.436,-10.769,16.9229,-147.6924,11.9231,-20,12.3076,4.1025,4.6152,-7.1797,-7.1797,-17.5642,15.3848,
-3.0771,31.2817,-17.436,11.7949,-157.436,26.9231,-29.231,15.8975,1.5386,5.6411,-14.3589,-1.5386,-32.5642,11.2817,
-3.0767,38.9746,-16.4102,7.1797,-170.7693,41.9231,-35.8975,22.564,1.5386,9.231,-14.8716,-1.5386,-35.8975,7.6924,
1.5386,49.7437,-17.9487,10.2563,-180.5129,56.9231,-35.3848,32.3076,-3.5898,8.7178,-14.3589,-1.5386,-33.3335,9.7437,
-1.0256,55.8977,-23.0769,3.0769,-195.5129,67.6921,-38.4617,32.8206,-8.718,5.1282,-21.0256,1.0256,-39.9998,9.7439,
-5.8975,62.3076,-14.6157,5.8975,-210.0002,78.2051,-39.231,36.1538,-1.7949,8.4614,-18.7183,1.7949,-35.6411,11.0254,
-4.8718,62.3074,-10.5129,14.1023,-206.9233,81.7947,-35.6414,43.3333,0.76929,5.3845,-11.0256,-0.76929,-26.9231,19.2307,
-0.76929,60.7693,-13.5901,15.1282,-199.7437,76.6663,-32.5642,43.8459,-2.8206,0.76929,-13.5901,2.3074,-33.5901,24.3586,
0,64.6152,-11.2822,14.3589,-197.436,82.0513,-31.2822,40.5127,-2.564,0,-18.9746,3.0767,-36.4102,20.5127,
-0.76929,64.3591,-8.4617,15.6409,-200.7693,93.0769,-30.5129,43.3333,-0.25659,0.25659,-12.5642,0.25659,-21.4102,25.3845,
0,58.4614,-10.2563,17.9487,-203.0771,92.3076,-30.2563,51.2817,-0.51318,0,-11.7949,1.0254,-12.3076,35.8975,
-2.3076,53.0767,-9.4873,15.6411,-208.4617,85.3848,-31.0259,51.5386,-0.25635,0.25635,-16.6665,0.25635,-27.3076,29.4873,
-4.1025,55.8975,-9.231,13.333,-213.3335,88.7178,-32.8208,48.7178,-0.5127,3.0767,-15.3848,0.5127,-33.8462,25.6411,
-2.8203,63.3335,-17.6924,13.0771,-209.4871,95.1284,-34.1025,48.9746,-2.3076,2.8208,-16.6665,2.3076,-32.0513,33.5898,
-3.0771,56.4102,-16.9233,9.7437,-203.5898,92.3076,-30.2563,48.2051,-1.5386,2.0513,-15.3848,1.5386,-30.7695,35.3843,
-6.1536,41.4102,-10.7693,11.282,-212.3076,85.1282,-31.7947,44.1028,0.51294,1.5388,-13.3333,-0.51294,-28.718,23.5901,
-6.1538,36.4102,-13.8462,10.2563,-214.8718,77.9487,-37.436,42.564,-0.5127,0.5127,-16.4102,2.564,-31.2822,10.2563,
-5.1287,34.3586,-13.8464,3.5896,-207.6926,67.6921,-35.8977,42.051,-3.0769,3.0769,-18.4617,7.6921,-33.3337,13.8459,
-8.718,24.1028,-12.8206,8.2053,-210.7693,60.5129,-31.282,40.0002,-3.0769,3.0769,-16.4104,5.1282,-30.7693,21.0256,
-11.0254,20.7695,-11.5381,16.1538,-212.051,63.3335,-28.9741,43.8462,2.3076,-2.3076,-11.0254,2.3076,-27.9487,18.7183,
-11.0256,25.3845,-13.0769,14.6155,-202.3076,62.3079,-30.5129,44.8718,3.8459,-3.8459,-11.0256,4.3591,-27.4358,22.8206,
-16.1538,26.4102,-17.1797,8.4614,-197.1794,51.0254,-32.0513,38.7178,-2.3076,2.3076,-14.1025,5.8975,-28.4614,36.6665,
-17.949,29.7434,-12.8206,12.3074,-200.0002,45.1282,-32.3079,34.8718,-3.0769,3.0769,-12.8206,3.0769,-29.2307,33.3333,
-10.7693,40.5129,-7.1794,21.5383,-193.8462,50.2566,-30.2566,35.3845,0.51294,-0.51294,-8.718,2.5642,-27.1794,25.1282,
-10.7693,38.9744,-7.6921,18.9744,-190.2563,48.2053,-29.7434,34.8718,-0.51294,0.51294,-11.282,4.1023,-23.0769,31.282,
-12.0513,32.564,-6.9233,17.1792,-191.5386,42.3076,-31.5386,33.0767,-0.25635,0.25635,-13.0771,1.2817,-23.3335,24.3589,
-7.1797,31.7949,-4.6152,20,-179.4873,39.4873,-28.2051,31.2822,6.1538,0,-7.6924,0,-22.0513,13.3335,
-11.282,25.1287,-11.7947,12.8206,-174.8716,31.2825,-30.2561,28.718,5.6414,1.0256,-9.2307,-1.0256,-23.0769,14.8718,
-9.7437,21.5386,-11.7949,10.769,-184.6155,28.2051,-34.8716,33.8462,0,3.0771,-14.8716,0,-27.1797,20,
-4.8716,18.2051,-4.8716,11.5386,-186.9231,27.436,-30.5127,28.9746,2.3076,-1.2822,-13.5898,1.2822,-31.5386,23.8462,
-8.9744,12.051,-4.8718,17.6921,-172.0513,27.9485,-27.4358,21.282,7.4358,-4.3591,-9.4871,4.3591,-27.949,26.9231,
-11.5383,6.9231,-9.4871,16.1541,-175.1282,27.949,-39.2307,22.3079,2.8206,-2.8206,-14.6155,6.4104,-27.4358,22.8206,
-4.3589,5.8975,-6.9233,10,-188.4617,29.4873,-39.7437,27.9487,0.25635,-0.25635,-18.2051,7.9487,-32.564,14.6152,
-6.4104,7.9485,-1.282,14.1023,-179.2307,34.1023,-28.4617,31.5383,0.76929,-0.76929,-16.6667,6.4104,-33.5896,12.051,
-11.0256,6.9231,-4.8718,13.5901,-164.2307,39.2307,-29.4871,31.5388,1.7952,-0.76929,-14.615,0.76929,-29.9998,12.5642,
-11.5383,4.3591,-12.5642,11.0256,-163.8462,35.1282,-32.051,25.8977,1.7952,1.282,-14.6155,-1.282,-29.9998,19.2307,
-17.9485,2.0515,-15.8972,12.3079,-164.1025,25.6409,-33.8459,20.5129,-1.0256,1.0256,-16.9231,2.0515,-28.2053,25.6409,
-15.8975,-3.5898,-7.6924,14.8716,-159.4873,28.7178,-33.3335,27.1797,4.6152,4.6152,-9.231,3.5898,-17.436,13.8462,
-3.8462,-5.8975,-3.333,21.2822,-155.6409,32.5645,-28.9744,33.0771,12.0513,8.9746,-2.3076,2.3076,-14.1025,8.4614,
-5.1282,-9.2307,-6.1536,19.4871,-154.8718,26.1541,-29.7437,27.1794,5.1282,7.6921,-10.7693,7.1794,-20.5129,23.4614,
-9.4871,-14.6155,-2.8206,14.1023,-156.1541,21.282,-28.4617,23.8459,2.8206,3.8459,-13.0769,9.4871,-20.7693,38.4614,
0,-12.3076,-4.6152,18.4614,-153.8462,19.4873,-22.0513,28.7178,6.1538,0,-9.231,2.0513,-20,31.7949,
0.25659,-4.3591,-8.4617,20.2566,-148.4614,20.2566,-21.7947,34.1028,-0.25659,1.7947,-10.5129,3.3333,-18.2053,16.7949,
-2.564,2.0513,-3.5898,24.1025,-138.4617,25.6411,-16.9233,35.3848,-2.0513,9.7437,-9.231,16.4102,-10.2563,27.1792,
-4.3589,-6.4102,-6.4102,17.6924,-136.1538,16.6665,-14.1025,23.8462,4.3589,10,-10,13.5898,-12.0513,26.9233,
-7.1792,-20,-8.2051,12.3076,-137.4358,7.1797,-15.8975,15.8975,10.7695,6.667,-6.1538,6.1538,-14.8716,22.564,
-12.8203,-32.8206,-8.7178,17.9487,-140,2.0513,-21.0254,18.4614,8.7178,5.1284,-2.0513,2.564,-15.8975,17.9487,
-11.7947,-30.7693,-5.6409,20.5129,-141.0256,-1.5383,-18.4617,24.1028,14.3591,12.8206,1.5383,4.1028,-10.2566,11.7947,
-7.6921,-19.9998,-1.5383,20.0002,-139.4871,0.51294,-16.9231,24.6155,17.4358,13.8459,-0.51294,4.1028,-3.5896,11.7947,
-8.4617,-18.718,-3.3333,20.2561,-130.5129,6.4099,-21.7952,24.3586,7.4358,3.8459,-4.3591,3.3333,-3.3333,25.3845,
-5.3848,-15.6411,-2.3076,22.8203,-115.5129,12.0513,-17.1797,28.4614,2.3076,9.4873,-2.8203,12.564,-5.8975,40.3845,
-3.0771,-10.7695,-1.5386,22.564,-117.9487,11.7949,-13.8462,29.2305,1.5386,20,-8.2051,15.3843,-10.2563,41.5386,
-6.6665,-20,-4.6152,20.5127,-130.7693,4.6152,-18.4614,25.6411,5.1284,16.4102,-14.3589,9.231,-15.3848,26.5386,
-6.4104,-23.3333,-1.282,25.3845,-124.3591,1.282,-18.718,25.8972,10.5125,15.6409,-10.0002,15.6409,-15.1282,16.6667,
-7.9487,-19.2305,-0.25635,18.7183,-124.3589,0.25635,-20.769,23.8462,7.436,20.2563,-8.4614,21.2822,-14.1025,23.3335,
-2.8206,-18.7178,0.76929,20.7693,-128.9741,-0.76929,-18.2051,29.4875,10.5129,23.8464,-3.3333,18.718,-3.8459,38.2053,
-3.3333,-20.2563,1.7947,31.5383,-130,-11.5383,-20.7693,31.0256,11.5383,17.6921,-1.7947,16.1541,-2.8206,31.0256,
-8.9744,-19.2307,3.3333,29.4871,-133.5896,-22.8206,-20.7693,23.8459,10.0002,13.5896,-3.3333,18.2053,-10.5129,19.7434,
-3.0769,-18.4614,3.0769,26.1541,-134.8716,-23.5896,-15.3845,24.6155,8.718,12.3079,-5.1282,16.9231,-10.2561,25.6414,
-0.5127,-18.4617,0.5127,27.1797,-125.6411,-21.0256,-10.2563,29.7437,6.6665,10.769,-6.1538,16.4102,-8.2051,29.231,
-4.3589,-15.6411,3.3335,33.0771,-115.6409,-17.1794,-4.3589,32.564,10,15.6411,-3.3335,20.2563,-5.8975,28.9746,
-4.3591,-17.1797,4.3591,33.5896,-114.1025,-17.6924,-10.5129,30.5129,6.4104,16.6667,-6.9231,16.6667,-5.3845,29.4871,
-0.51294,-22.0513,3.0769,26.1541,-109.7437,-23.5898,-12.3079,26.6667,0.51294,13.8459,-8.718,14.3591,-7.1794,30.2566,
-3.0769,-24.1025,4.1028,26.1541,-109.2307,-27.6924,-10.7693,25.6409,3.0769,12.3079,-5.1282,12.3079,-8.2053,27.6921,
-8.2051,-19.4873,4.1025,31.2822,-112.8206,-25.6411,-12.3076,26.1538,10.2563,12.8203,-4.1025,9.231,-5.6411,22.564,
-8.718,-21.5386,4.6155,25.6409,-118.9744,-27.6924,-16.4104,23.0769,10.2566,9.7434,-4.6155,7.1794,-10.2566,21.5383,
-5.3845,-27.436,4.8718,22.8206,-116.6667,-35.1282,-20.7693,19.7434,4.3591,2.8206,-2.8206,9.4871,-10.5129,22.3079,
-7.1797,-32.3079,0,22.0513,-107.6924,-42.5642,-15.8975,20.5127,3.5898,2.564,-1.0259,10.769,0,19.4873,
-13.0767,-32.564,-2.8203,18.7178,-107.4358,-45.8975,-9.4873,23.3335,7.9487,8.4614,-0.25635,10.5127,0.25635,19.7437,
-10.7693,-32.8206,0.51294,18.9744,-108.718,-44.1028,-12.3079,22.051,10.2561,5.6409,-0.51294,9.2307,-8.718,23.0769,
-6.1543,-37.436,1.0254,20,-107.6926,-41.5386,-10.7695,17.9487,6.1538,0,0,7.6919,-13.3335,12.3076,
-5.6414,-34.8718,-0.51294,23.0769,-104.1025,-44.1025,0.51294,18.9744,2.5642,4.6155,-2.5642,7.6921,-17.4358,5.6409,
-9.4873,-32.5642,-1.2822,22.3076,-103.8464,-47.949,-0.25635,22.3076,4.8716,5.3843,0.25635,6.9229,-8.9746,20.2563,
-17.6921,-44.8718,-4.8718,18.718,-110,-51.0256,-15.1282,14.1028,2.8206,-2.8206,3.3333,4.8718,4.3591,24.3591,
-11.282,-45.1284,-3.5901,22.051,-97.9487,-47.1797,-13.3333,9.7434,3.5896,0.51294,2.5642,3.5896,-0.51294,13.3333,
-5.1282,-37.436,-1.0256,21.0256,-86.6667,-48.2053,-4.6155,12.3074,8.2048,7.6921,3.5896,1.0256,-7.1794,13.3333,
-11.0259,-38.718,-3.3335,21.2817,-92.5642,-53.0771,-5.8975,11.5381,7.9487,2.8203,2.8203,1.7949,-1.7949,24.8716,
-11.0259,-44.3591,-5.8975,20.769,-96.6667,-52.5642,-12.0513,11.0254,5.8975,3.333,0.25635,1.2817,-0.25635,20.769,
-2.3079,-38.718,-1.282,20.7693,-84.3589,-44.8718,-7.4358,13.5896,14.1023,14.1023,2.8206,1.282,-3.3333,11.5383,
-0.25635,-26.9231,0.25635,20.7695,-79.2307,-42.3076,-1.2817,13.0771,16.667,15.1284,-1.7949,8.9746,-7.9487,20.7695,
-1.0256,-25.1282,-0.51294,21.5388,-87.6921,-45.1282,0.51294,15.8977,10.7693,15.8977,-6.6667,16.9231,-3.0769,32.3079,
-3.3337,-36.6667,-2.8206,19.2307,-92.5642,-49.4873,0.76929,16.1536,3.3333,14.1023,-5.385,8.4612,-0.76929,20.7693,
-3.5896,-37.9487,-5.1282,19.4871,-93.3333,-50.7693,0.51294,14.3591,3.5896,11.282,-0.51294,4.1028,-3.0769,14.3591,
-1.5383,-30.7693,-3.0769,26.1541,-97.4358,-45.6411,-1.5383,18.4617,9.7434,13.3333,1.5383,14.3591,-3.0769,23.0769,
-1.0259,-31.2822,-5.1284,26.6665,-90.2566,-43.5898,0,19.4868,7.1792,15.3843,0,11.7949,-6.667,22.564,
-1.5386,-32.8206,-7.1797,18.4614,-75.2566,-45.1282,5.1279,15.8975,0.5127,11.2817,0,0,-14.8721,16.4102,
1.282,-30.5127,-7.4358,16.1541,-70,-45.8972,2.8206,16.6667,3.8464,6.9231,-1.282,-2.3074,-20.2561,13.0769,
0.76929,-30.5127,-5.3845,19.2307,-76.1538,-42.8203,-2.3074,17.1794,11.0256,10.5129,-0.76929,5.3845,-8.9744,17.6926,
-4.8721,-34.1028,0.25635,18.7178,-73.5898,-43.8462,-1.2822,14.6152,10.5127,12.564,-0.25635,8.9741,-0.25635,23.8462,
-3.8462,-31.0256,-1.2822,19.231,-63.8462,-43.8462,-0.25635,17.6924,11.0254,14.1025,0.25635,6.4102,-0.76904,23.8462,
-2.564,-33.3335,-9.7437,15.8975,-65.6411,-43.5898,0,15.3848,12.3076,13.8462,0,2.564,-6.6665,27.6924,
0.51294,-38.9744,-5.6409,13.3333,-75.3848,-46.6667,0.51294,10.2561,10.2561,11.282,-3.0769,-0.51294,-15.3845,28.718,
2.3079,-37.1794,0.76929,16.1541,-73.0769,-47.436,-1.282,17.1794,13.0769,13.0769,-0.76929,-1.7947,-13.0769,18.718,
-2.051,-36.9229,-4.6155,17.4358,-64.1025,-50.2563,-1.5383,19.4875,15.8977,15.8977,4.1028,1.0256,-1.0256,15.3845,
-3.8464,-41.7949,-9.4875,15.1282,-71.5386,-59.231,-3.3333,9.9998,7.4358,14.615,-0.76929,5.3845,0.76929,19.2307,
-1.282,-46.9233,-6.4104,10.5125,-78.718,-63.8462,1.282,7.9485,8.4612,14.1023,-4.8718,5.8972,-10.5129,20.7693,
-2.8206,-46.4102,-4.8718,12.5642,-70,-62.8206,2.8206,15.1282,14.1028,12.5642,-3.3333,3.8459,-16.1541,24.3591,
-2.5642,-38.9744,-3.5896,22.5642,-62.5642,-56.4102,0.51294,21.5383,13.3333,14.8718,-0.51294,8.718,-5.6409,30.7693,
-7.1797,-43.0771,-6.667,20.5127,-67.6924,-57.9487,-2.0513,14.8716,6.1538,13.333,2.0513,6.6665,-5.6411,22.564,
-7.6921,-46.6667,-10.2566,18.9744,-62.0513,-62.0513,1.5383,13.3333,2.5642,7.6921,-1.5383,3.0769,-7.1794,15.3845,
-8.9744,-53.0769,-7.9485,16.1541,-62.8203,-64.3589,3.8464,14.6155,4.8718,0.76929,-10.5129,1.7952,-0.76929,16.1541,
-7.1797,-56.9231,-0.5127,16.4102,-66.6667,-63.0769,5.1284,10.769,8.2051,0.5127,-5.6411,-0.5127,3.5898,15.3848,
-1.7949,-44.8718,-3.8462,20.769,-54.6155,-60.2563,5.3848,13.0767,5.8975,9.4873,-0.76904,-3.8462,0.76904,16.6665,
-1.0259,-42.0515,-11.7949,16.4102,-52.3079,-58.4617,3.5894,15.3843,3.0767,15.8975,-5.1284,0,0,25.1279,
-3.8462,-57.0515,-7.9487,15.6411,-62.8206,-57.6924,3.8462,13.0767,4.3589,12.0513,-5.8975,5.8975,-4.3589,30,
-3.0769,-67.1794,-4.1028,17.9485,-55.3845,-58.9744,6.1541,13.3333,4.1028,3.0769,-5.1282,5.6409,-12.8206,23.0769,
-1.7949,-64.8718,-7.436,11.0254,-50.5129,-66.9231,3.8462,11.0254,1.7949,2.8203,-6.4102,3.3335,-8.9746,15.6411,
-2.564,-68.7178,-13.8462,9.231,-63.0767,-70.769,2.0513,7.6924,3.0771,5.6411,-7.6924,3.5898,-2.0513,15.8975,
-8.9744,-78.2051,-18.2053,12.5642,-76.6667,-72.0513,-0.76929,9.4871,2.3079,3.3333,-9.4871,0.76929,0.76929,13.5896,
-4.3589,-76.1538,-7.436,19.231,-79.7437,-69.4871,0.76904,13.5898,5.3848,6.4102,-3.3335,-0.76904,2.3076,16.6665,
-5.6411,-77.4358,-8.2051,17.9487,-77.9487,-69.7437,0.5127,12.3076,3.5898,5.1284,-5.6411,-0.5127,0.5127,16.4102,
-6.1541,-77.4358,-8.718,17.9485,-75.8975,-69.2307,0.51294,11.7947,2.5642,4.1028,-7.6921,0.51294,-0.51294,17.4358,
-6.1538,-76.9231,-8.2051,18.4614,-72.8206,-68.2053,1.5386,11.7949,2.0513,4.1025,-8.7183,2.0513,-1.5386,18.9741,
-6.4102,-76.1538,-7.9487,19.231,-69.4873,-66.9231,2.3076,12.564,1.7949,4.3589,-9.4873,3.3335,-1.7949,20.769,
-5.8975,-75.6411,-6.9233,19.7437,-65.8975,-65.3848,3.8462,13.0767,1.7949,4.8716,-10,5.3848,-1.7949,22.3076,
-4.1028,-73.8462,-4.6155,22.0515,-61.5386,-62.5642,6.1541,14.8718,2.0515,6.1541,-10.2566,8.718,-2.0515,25.6409,
-2.3079,-73.0769,-1.7947,23.3333,-58.718,-60.2563,7.949,13.5896,1.7947,3.8464,-3.8459,6.4104,-3.3333,32.5642,
-1.2822,-67.9487,-0.25635,23.3335,-45.8975,-55.6409,10.5127,18.2051,1.7949,5.3848,-4.8716,0.25635,-5.8975,18.7178,
-1.0256,-70.2563,-1.0256,18.4617,-52.3076,-59.4871,4.1028,20.5129,5.1282,2.0515,-8.718,1.0256,-2.5642,12.8206,
0,-68.2051,-0.5127,19.4873,-62.5642,-58.4617,0,19.4873,6.1538,-6.6665,-1.5386,6.1538,5.1284,26.6665,
-1.2822,-67.436,-4.3589,18.7178,-60.2566,-57.1794,2.3076,15.1279,0.25635,-6.4102,-0.25635,5.3848,3.8462,27.436,
1.2822,-72.0513,-0.76904,14.6152,-66.9231,-66.9231,7.9487,10.5127,0.25635,-0.25635,-5.8975,1.2822,-9.4873,15.1279,
-0.25635,-67.4358,1.7949,17.6924,-73.5896,-75.1282,2.8208,9.4873,0.25635,-2.3076,-8.4614,3.8462,-11.5386,19.231,
-3.8462,-63.8462,-0.25635,20.2563,-66.4104,-67.9487,-1.7949,15.1279,3.8462,0.25635,-2.3076,11.5386,3.3335,30.5127,
-7.6924,-77.9485,-4.6152,15.3848,-62.564,-67.1794,0,15.3848,3.0771,0,-5.1279,1.5386,3.0771,19.4873,
-0.76953,-74.1028,-0.25635,23.8462,-52.5642,-61.2822,11.0254,20.769,4.3589,1.7949,-3.8462,-0.76953,0.25635,16.6665,
-3.8462,-66.9231,0.25635,25.3848,-66.4102,-63.8462,3.3335,16.1538,1.7949,-0.25635,-3.3335,-0.25635,0.25635,24.8721,
-6.6667,-63.5898,0.51294,24.6155,-76.4104,-66.1541,-4.1028,13.8459,4.1023,-0.51294,-1.0256,2.051,6.1536,29.7434,
-7.1797,-64.6155,-3.5898,22.0513,-61.5386,-65.1284,-1.5386,11.7949,5.1279,-0.5127,3.0767,0.5127,7.1792,20,
-9.4871,-68.9744,-6.9231,21.7947,-56.6667,-71.5386,-0.25659,6.9231,10.5129,0.25659,3.8459,-4.3591,3.8459,14.1023,
-7.4358,-66.9231,-3.3333,22.8206,-62.8203,-76.1538,-1.282,7.949,16.6667,4.3591,1.282,-5.8972,1.7952,13.5896,
-8.718,-58.9746,-1.0256,17.9485,-54.8721,-66.1541,1.0256,16.9231,7.6921,6.1536,-3.5901,1.5383,-2.0515,10.7688,
-3.8459,-50,-0.76929,23.8459,-59.7437,-56.1538,4.3591,22.3079,0.76929,6.9231,-5.8977,10.5129,-1.7947,16.6667,
4.3589,-48.9744,-1.2822,25.3848,-74.7437,-66.4104,-1.2822,16.1538,1.7949,1.2822,-2.8203,5.3848,-1.2822,20.2563,
-1.5386,-54.3591,-1.0259,20,-78.9744,-70.2566,0,13.3335,1.5386,-9.231,1.0254,0,0.51269,15.3848,
-15.3848,-57.949,0,22.0513,-64.1028,-59.4873,0,18.9741,2.564,-9.7437,-1.5386,4.6152,5.1279,15.3843,
-20.5127,-60,0.5127,24.6157,-79.1028,-58.9744,-9.2305,20,7.6924,-0.51269,-5.6411,9.231,5.6411,27.1797,
-8.9744,-55.6409,4.3591,25.8977,-94.1028,-68.4614,-7.4358,15.6409,4.8718,-0.76929,-5.3845,3.3333,0.76929,25.3845,
1.5383,-50.2566,7.1794,25.6409,-79.1028,-68.718,4.6155,14.8718,-1.5383,-11.7952,-5.6414,-6.6667,4.1023,10.3845,
3.0769,-40.5127,8.718,27.1794,-64.1028,-62.564,15.3845,17.949,-3.0769,-11.282,-7.1794,-8.718,9.2307,8.2053,
5.1282,-26.6665,13.3333,31.7952,-49.1028,-63.0769,20.5129,16.9231,-4.1023,-3.5896,-6.6667,-7.6921,3.5896,23.2053,
6.1538,-26.1538,12.3076,24.6152,-34.1028,-70.7693,15.8975,6.1538,-14.8716,-16.4102,-13.8462,-20,-5.6411,15.8975,
21.1538,-11.1538,16.9233,25.1284,-19.1028,-56.4102,22.0513,11.7949,-14.3589,-22.0513,-16.9229,-19.4873,2.564,0.89746,
25.8975,3.8462,3.8462,13.0771,-4.1028,-53.0769,23.3335,8.4614,-21.7949,-30.5127,-27.436,-25.3848,-3.8462,-10,
39.7434,18.8462,2.8206,14.1023,10.8972,-57.6924,29.4871,3.8459,-19.2307,-31.0259,-23.3333,-31.0259,-3.8464,-2.8206,
54.1028,32.5642,6.9231,22.8206,25.8972,-63.3333,29.9998,1.282,-16.6667,-32.0513,-17.6921,-28.9744,-1.282,-4.8718,
63.0769,43.5896,10.7693,21.0256,40.8972,-62.5642,38.9744,3.5896,-16.4104,-32.3079,-14.8718,-20.5129,-3.5896,-4.1028,
68.9746,47.436,14.1025,15.1284,55.8972,-65.8975,46.4102,0.25635,-22.8203,-39.2307,-21.2822,-26.9229,-10.5127,-0.25635,
72.8203,47.1792,15.3848,18.9741,70.8972,-71.7949,50.2563,-0.5127,-18.9746,-40.5129,-16.9233,-31.2822,0.5127,-1.5386,
66.4102,34.1025,7.9487,15.1284,85.8972,-86.7949,47.436,-6.4102,-16.1538,-41.282,-13.5898,-33.5896,6.4102,-16.5386,
72.3079,27.6921,14.8718,24.1028,100.8972,-101.0256,52.8206,-5.1282,-13.3333,-38.9744,-11.7947,-27.6924,5.1282,-19.4871,
72.5642,22.3079,20.2566,32.0515,115.8972,-107.4358,57.6921,-5.3845,-8.9744,-38.2051,-8.4617,-27.9487,5.3845,-8.9744,
61.0254,9.2305,11.7949,26.6665,130.8972,-122.4358,52.3076,-16.4102,-10.2563,-42.0515,-7.6924,-39.4873,7.6924,-14.8721,
62.5642,6.1541,14.3591,26.6667,145.8972,-130.2563,56.9231,-16.4104,-6.6667,-35.3845,-6.1541,-35.3845,10.7693,-12.3079,
60,-5.6411,18.4614,25.1284,160.8972,-139.4871,61.5386,-15.8975,0.5127,-25.6409,-0.51269,-27.1794,11.2822,-5.1279,
45,-20.6411,6.4104,21.282,175.8972,-154.4871,51.5383,-26.4104,0.76929,-24.8718,-0.76929,-34.1025,16.1536,-17.1794,
37.1797,-35.6411,2.8203,21.2822,178.2051,-169.4871,47.436,-31.5383,1.2822,-21.7949,-1.2822,-37.6924,25.3848,-24.3589,
31.2822,-50.6411,9.7437,23.0771,174.8721,-178.9744,47.1797,-34.8718,-2.564,-26.6665,2.564,-35.3845,23.0771,-18.4614,
18.718,-65.6411,8.9744,24.8718,166.9231,-185.3845,45.3845,-37.1794,-5.3845,-31.5383,5.3845,-26.9231,25.8977,-12.051,
7.6924,-80.6411,2.564,23.0771,151.9231,-192.8203,43.5898,-42.0513,-2.564,-27.6921,4.1025,-21.5383,28.2051,-6.6665,
1.5386,-95.6411,2.564,26.1538,136.9231,-197.4358,43.5898,-45.6409,-1.5386,-24.6152,5.1284,-23.5896,17.436,-6.1538,
-2.3076,-104.8716,6.9233,30.5132,129.4873,-199.2307,44.8721,-44.8716,2.3076,-20.2563,12.5645,-23.3333,22.3076,-12.0513,
-5.1282,-112.3076,5.1282,32.8206,116.4104,-202.051,41.0256,-45.1279,9.7439,-16.4102,15.8977,-17.9485,36.9231,-14.3589,
-5.6411,-115.3848,3.5898,39.4868,106.1538,-201.0259,41.5386,-41.0259,13.8462,-9.7437,19.4868,-14.3591,41.5386,-3.5898,
-13.3333,-125.6411,5.1282,38.4617,93.8459,-205.6411,41.0256,-42.0513,10.2566,-12.8206,17.4358,-29.3591,33.8459,-5.1282,
-12.3077,-124.6154,11.2821,38.9745,90.2562,-205.1281,38.4618,-41.0255,15.3846,-16.923,15.3846,-44.3591,32.8207,-11.2821,
-12.3076,-117.9487,8.718,33.8464,86.6667,-200,33.3333,-41.5383,16.4104,-17.9487,14.8718,-59.3591,30.7693,-8.718,
-17.1794,-120.2563,1.7949,32.5645,73.0771,-198.2051,31.5386,-42.3076,11.5386,-19.2307,10.5132,-66.9229,22.3076,-1.7949,
-17.4358,-118.9744,-0.51294,36.4104,68.718,-194.3589,32.3079,-43.5896,12.3079,-20,8.718,-63.0769,14.3591,0.51294,
-13.8462,-111.7949,2.0513,31.7949,72.3076,-188.2051,35.3848,-41.5383,21.0259,-11.7949,16.4102,-56.9231,20.5127,-2.0513,
-12.0513,-107.4358,2.3076,28.9746,73.0771,-186.4102,34.1025,-35.1282,22.8208,-2.3076,17.6924,-55.1282,33.0771,-2.3076,
-7.9485,-100.2563,-0.25659,28.4617,81.282,-179.2307,32.5642,-33.5898,19.2307,-2.3079,14.6155,-54.1025,32.5642,0.25659,
-3.8459,-95.6411,2.8206,25.3845,87.4358,-170,36.1541,-34.1025,21.282,-3.8459,18.718,-54.1025,26.4104,-2.8206,
-3.3333,-97.1794,3.3333,32.0515,78.2053,-172.564,35.1282,-32.564,22.3079,-4.8718,21.7952,-61.7947,30.0002,-7.9485,
-5.3845,-98.718,-0.76929,38.718,67.9485,-179.7437,32.0515,-34.1025,17.6921,-4.8718,17.6921,-58.2051,33.5896,0.76929,
-14.615,-104.8716,-4.8718,31.0256,56.1541,-183.8459,25.8977,-42.8203,6.4104,-8.9744,6.4104,-52.051,22.8206,4.8718,
-15.6411,-105.8975,-1.7949,26.4102,46.4102,-179.2307,26.9233,-44.3589,7.9487,-11.5386,7.9487,-54.1025,21.7949,1.7949,
-8.7183,-96.9233,0,33.333,49.7437,-173.3335,31.7949,-40.0002,15.3843,-6.667,13.333,-54.3591,25.6406,0,
-7.436,-93.0769,-1.7949,39.7437,47.9487,-171.0256,29.4873,-36.6667,13.0767,-2.3076,11.0254,-52.0513,21.2817,1.7949,
-13.8462,-100.0002,0,35.3843,36.4102,-171.7949,26.1538,-38.4617,11.2817,-6.1538,11.2817,-55.3848,22.564,0,
-15.1284,-98.2053,2.3076,31.0254,32.0513,-170.5129,23.333,-41.2822,16.6665,-2.3076,12.564,-53.5898,24.3589,-4.3589,
-16.4102,-98.4617,-5.6411,29.2305,24.6152,-173.8462,13.333,-43.5898,22.564,5.6411,6.6665,-50.7693,12.3076,-8.2051,
-18.4614,-105.1284,-9.231,28.7178,15.8975,-175.8975,8.7178,-42.0515,21.5386,5.6411,6.1538,-51.7949,9.2305,-5.6411,
-24.3591,-102.8206,-10.0002,20.2561,19.7434,-174.6155,11.5383,-46.9233,14.615,0.76929,5.3845,-56.1541,8.4612,-0.76929,
-22.8206,-95.6409,-9.9998,11.0256,31.5388,-171.5383,15.6414,-45.8972,15.1282,2.8206,2.8206,-57.1794,3.8464,-2.8206,
-14.6155,-91.5386,-7.4358,22.3079,38.2053,-166.9231,21.7947,-36.6667,21.282,6.9231,6.9231,-50,13.0769,-6.9231,
-16.6665,-94.1025,-10,30,32.564,-166.4104,24.8716,-39.7437,20.2563,5.3848,7.9487,-46.4104,21.7949,-5.3848,
-19.2305,-97.6921,-11.5386,23.3335,30,-165.8975,21.7949,-47.4358,16.6665,3.3335,6.9233,-49.4871,20.2563,-3.3335,
-13.0771,-88.9746,-8.4619,25.3843,40.2563,-160.2566,18.7178,-41.7949,13.5894,2.3076,7.9487,-43.3335,21.2817,-2.3076,
-16.6665,-92.0513,-8.4614,27.9487,34.1025,-160.7693,18.7178,-40.2563,10,0.25635,5.8975,-46.4104,19.7437,-0.25635,
-18.2051,-100.2563,-6.4102,24.8716,24.3589,-161.7949,21.2822,-45.3848,13.0767,0.25635,3.8462,-59.7437,16.6665,-0.25635,
-11.0256,-92.564,-4.3591,27.4358,36.1541,-154.6152,24.8718,-40.7693,15.6409,4.3591,7.4358,-55.6409,21.282,-4.3591,
-15.8975,-88.718,-4.1025,31.2822,26.6665,-154.3589,24.1025,-38.4617,10.769,4.1025,11.7949,-47.1794,22.564,-4.6152,
-20.7693,-91.0256,-7.949,29.9998,15.6409,-159.7437,21.7947,-45.8975,4.8718,-2.8206,5.8972,-51.0256,14.1023,2.8206,
-11.7952,-80,-13.8464,21.5383,30.6409,-155.3848,26.1536,-47.1797,5.1282,-2.5642,2.5642,-51.2822,15.3845,9.2307,
-10.0002,-73.0769,-18.2053,14.6155,45.6409,-158.718,29.9998,-49.4873,3.3333,-0.76929,3.3333,-54.1025,16.1541,0.76929,
-2.0513,-68.2051,-9.7437,26.667,60.6409,-161.5383,37.9487,-45.1282,8.2051,2.0513,10.7695,-52.8203,22.0513,-7.6924,
3.3335,-64.8718,-5.8975,25.3848,68.4614,-159.2307,32.0513,-43.3333,9.4873,-3.3335,7.436,-53.5896,24.8721,-13.0767,
4.3591,-61.7949,-7.4358,26.4104,64.8718,-157.6921,27.949,-41.282,10.5129,-4.3591,4.3591,-54.6152,21.282,-9.4871,
0,-63.5898,-6.1538,34.8716,49.8718,-162.5642,33.3335,-41.5386,12.3076,-4.1025,10.2563,-52.3076,17.436,0,
-4.1025,-63.5898,-5.1284,34.3589,43.0767,-164.1028,28.7178,-44.1028,7.6924,-8.2051,7.6924,-50.2566,18.4614,4.1025,
-1.282,-57.1794,-7.4358,32.5642,42.3079,-156.6667,20.7693,-40.7693,4.8718,-8.4617,1.282,-52.5642,24.3591,4.8718,
-1.7949,-57.6924,-5.8975,35.1279,36.1538,-156.1538,27.436,-35.1282,6.9229,-11.5386,8.9741,-51.0256,24.8716,1.7949,
-2.8206,-58.2051,0.76929,41.7947,34.1028,-156.1538,31.0256,-30,6.4104,-15.6411,16.6667,-41.282,17.1794,-0.76929,
-3.8464,-58.2053,-3.3333,40.2561,30.5125,-152.5642,20.7693,-31.0259,3.3333,-15.6411,6.9231,-38.2053,12.051,3.3333,
-3.5896,-65.1282,-7.1794,37.4358,27.1794,-154.8718,19.4871,-36.9231,3.5896,-17.4358,4.6155,-41.5383,18.9744,6.6667,
-3.8459,-66.4102,-4.8718,41.282,29.9998,-159.7437,21.7947,-32.0513,3.8459,-21.7949,13.5896,-42.8206,22.8206,3.8459,
-5.3845,-65.3845,-7.4358,40.7693,29.4871,-159.7434,18.718,-26.9229,6.9231,-19.2307,12.5642,-43.8459,17.6926,5.3845,
-8.7179,-66.6664,-7.6923,39.4872,21.0258,-159.9999,17.9491,-35.8973,16.9232,-10.7692,12.308,-42.5638,17.4359,7.6923,
-9.7437,-66.6667,0,44.1025,20.5127,-168.2051,25.1284,-35.3845,25.6411,-2.5642,22.564,-38.9744,28.2051,0,
-3.8462,-63.3333,3.3333,45.8975,21.7949,-174.1025,28.4614,-26.4102,22.3076,-3.3333,23.3335,-37.6924,30,-7.9487,
-2.3076,-54.1028,-0.25635,40.769,14.6152,-166.4104,22.8203,-30.5129,13.0767,-12.5642,10.5127,-35.6411,17.6924,0.25635,
-4.1028,-48.2051,-0.51294,35.3845,14.3591,-163.0769,18.4617,-39.4873,4.1023,-24.6155,0.51294,-41.5386,6.6667,1.0256,
6.1541,-34.8718,4.1028,42.5642,27.1794,-157.4358,22.0515,-29.7437,0.51294,-27.1794,-0.51294,-41.0256,8.2053,-2.5642,
6.1541,-30.2563,1.0256,43.5896,18.9744,-151.282,21.5383,-26.6665,-2.051,-24.6152,-0.51294,-35.3845,5.1282,0.51294,
-0.76929,-36.6667,0.76929,40.7693,8.4617,-149.4873,19.2307,-32.5642,-0.76929,-22.8206,3.3333,-36.1538,1.7947,4.3591,
0,-32.3076,0,43.5898,21.5386,-147.6924,18.4614,-29.7437,-0.5127,-25.6409,1.0259,-39.4871,6.6665,3.0771,
4.1023,-25.1282,-2.0515,39.9998,31.7947,-144.6155,25.1282,-27.1794,1.0256,-23.5898,-0.51294,-36.9231,11.7947,0.51294,
3.0769,-31.282,-1.0256,37.949,22.5642,-146.6665,28.2053,-33.8462,1.0256,-17.4358,1.0256,-34.3589,13.3333,-4.6155,
0.5127,-35.8975,-0.51269,46.1538,17.9487,-143.0769,20.5127,-32.8206,3.0767,-11.2822,1.5386,-35.3848,15.3848,-2.0513,
-6.4104,-32.5642,-3.3333,39.7434,14.1023,-137.1797,9.9998,-27.436,6.4099,-10.0002,3.3333,-36.6667,13.0769,7.4358,
-8.2048,-32.3076,-5.1282,33.3333,7.6926,-140,12.8206,-28.7178,10.2566,-8.2048,5.1282,-36.9231,11.282,7.1794,
-3.0771,-34.3591,-2.0513,41.5386,2.564,-138.4617,20.5127,-31.7949,17.9487,-5.6411,6.6665,-35.8975,9.2305,2.0513,
-2.8203,-32.564,1.7949,45.8975,-1.7949,-132.564,17.6924,-29.4871,20.7695,-7.4358,10,-30,4.3589,3.3335,
-3.8462,-25.8977,2.3076,42.8203,-2.3076,-130.0002,17.1792,-23.8462,21.2817,-2.8208,15.6411,-21.2822,11.0254,6.9229,
-4.1023,-27.6921,-0.51294,40.5129,-6.6667,-133.3333,16.4104,-27.1794,22.5642,0.51294,11.282,-23.5896,15.3845,1.0256,
0.76929,-25.3845,2.3079,47.9485,-1.282,-127.4358,19.2307,-24.8718,29.4871,-0.76929,12.0515,-25.8975,16.1541,-2.8206,
-0.25635,-23.8459,1.2822,46.4102,0.25635,-124.3589,18.2051,-22.8203,32.5645,-5.8975,19.7437,-23.3333,20.7695,-1.2817,
-3.3335,-25.3845,3.3335,45.3848,-5.3848,-127.9487,14.6152,-27.9487,30.5127,-3.3335,18.2051,-24.8718,21.2822,8.4614,
-7.1792,-24.1025,3.5898,38.9746,-3.5898,-133.8459,9.7437,-33.3333,21.5386,-5.6411,6.1538,-31.7947,11.2822,12.3076,
-7.436,-23.8464,0.25635,32.0513,-0.25635,-135.6411,8.9741,-29.4873,16.1538,-11.0259,3.8462,-32.5642,9.4868,1.7949,
1.5386,-17.9487,3.5898,41.0259,-1.5386,-130.769,12.8208,-20.5127,22.564,-6.6665,9.7437,-30.2563,14.3589,-6.6665,
3.0771,-10.769,1.5386,38.4614,-1.5386,-131.282,12.3076,-26.6665,18.4614,-6.6665,5.6411,-39.4871,6.1538,-5.1279,
4.3589,-3.3335,-0.76904,31.5386,13.4614,-130.5127,19.231,-29.4871,8.9746,-13.0767,0.25635,-44.3589,3.8462,-0.25635,
8.9744,1.282,-2.3079,33.0769,21.282,-132.0515,20.2561,-24.8721,3.3333,-22.3079,-1.282,-45.3848,5.3845,-2.3079,
9.9998,2.3074,-2.8206,27.9485,16.1536,-136.1541,15.6409,-23.3333,1.7947,-26.4104,-0.76929,-52.0515,0.76929,-8.9744,
14.3589,10.2563,0,30.769,30.769,-130.2563,24.6152,-18.4614,2.564,-25.1279,0,-51.7949,-0.5127,-14.3589,
22.8203,17.6924,0.25635,36.6665,45.769,-126.4104,37.6924,-14.6152,-0.25635,-27.436,-4.3589,-47.436,1.7949,-16.1538,
29.2307,20.0002,2.0515,30.2566,43.0769,-127.6924,40.0002,-15.3845,-2.0515,-28.2051,-5.1282,-49.2307,4.1028,-18.4617,
29.9998,26.9231,2.8206,36.6667,46.9231,-118.2051,37.6921,-10.0002,-2.8206,-23.8462,-4.8718,-50.5129,4.8718,-20.7693,
27.4358,34.6155,2.3079,45.8972,61.9231,-106.4104,38.2048,-2.3079,-6.4104,-21.7949,-7.4358,-45.8975,6.9231,-12.5642,
25.6414,32.8206,-1.0256,40.0002,61.0256,-108.2051,38.9744,-9.2307,-12.3074,-27.1794,-11.7947,-45.6409,6.1541,1.0256,
28.4617,28.9744,-1.282,35.6414,56.1541,-108.9744,44.3591,-13.5896,-13.5896,-28.9744,-14.1023,-53.5896,6.4104,1.282,
29.4873,41.2822,5.8975,39.7437,70,-98.2051,50.5127,-5.8975,-12.0513,-24.8718,-8.9741,-50,9.4873,-6.4102,
28.4617,53.5896,4.8718,40.2566,74.1023,-88.9744,46.4104,-3.3333,-13.5896,-25.3848,-7.949,-43.3333,3.3333,-5.8977,
35.1282,53.5896,3.3333,38.718,72.051,-85.3848,47.4358,-3.3333,-10.5129,-28.4617,-8.9744,-45.3848,4.3591,-4.3591,
37.6926,54.1028,3.3333,37.1794,75.6414,-87.9487,48.9744,-3.3333,-11.5383,-31.5383,-13.0769,-48.9744,15.6414,-6.9231,
31.5383,58.718,1.282,34.615,77.1794,-88.4617,47.4358,-5.8977,-13.0769,-30.5129,-12.5642,-48.4617,16.6667,-1.282,
29.2305,55.8975,0,33.8462,68.2051,-85.1282,47.1792,-4.6152,-13.3335,-32.8206,-11.2822,-49.7437,4.6152,0,
34.8721,55.3848,-0.5127,34.8721,66.6665,-82.564,45.6411,0.51269,-16.9229,-32.8206,-14.3589,-48.7178,2.0513,-7.6924,
35.3845,58.9744,0.51294,28.718,69.2307,-86.1538,43.0769,-0.51294,-17.9485,-23.5896,-15.8972,-45.6409,8.2053,-8.718,
34.1028,60.2566,6.9231,26.9231,61.7947,-90,41.282,-2.3079,-20.2566,-23.8459,-19.2307,-48.4614,2.3079,-4.3591,
38.2053,67.4358,8.4617,34.1028,57.6921,-83.3333,41.282,2.8206,-20.2566,-28.4617,-18.718,-45.8975,-2.8206,-3.8459,
39.2307,72.5642,1.282,33.0769,63.3333,-80.2566,37.6921,2.8206,-22.8206,-30.0002,-20.7693,-45.8975,-1.282,-11.0256,
38.2051,78.2051,0.25635,29.4873,72.0513,-82.3079,37.1792,-0.25635,-26.9233,-31.5386,-27.9487,-52.5642,2.8203,-17.1797,
34.8716,81.5386,1.5386,26.1538,64.1025,-82.0513,37.9487,-1.5386,-22.564,-33.3335,-28.7178,-53.3333,5.1284,-18.4614,
32.0513,79.231,-1.2822,27.9487,51.5386,-79.2307,34.1025,1.2822,-16.1538,-27.9487,-21.2822,-49.4871,4.8721,-11.5386,
31.7949,76.9233,-3.5898,31.2822,57.436,-75.3845,33.3335,3.5898,-21.0254,-24.6152,-17.9487,-48.2051,3.5898,-7.6924,
31.0256,73.0769,1.282,26.9231,65.385,-72.564,39.2307,-1.282,-23.8459,-29.4871,-18.2048,-53.0767,2.8206,-15.1282,
29.7439,73.3333,3.0769,29.2307,56.9231,-74.3589,40.0002,-2.5642,-16.4099,-28.2048,-17.4358,-52.8203,2.5642,-14.8718,
28.2051,76.9229,-3.5898,32.3076,43.0771,-74.3589,33.8462,2.564,-12.8203,-20,-17.9487,-44.6155,2.564,-2.564,
27.6924,77.9487,-5.6411,28.7183,44.6157,-65.1282,33.8462,3.0771,-15.8975,-21.5386,-19.4868,-45.6409,1.5386,-1.5386,
28.4614,83.3335,-2.3076,26.4102,55.1284,-57.1794,42.8208,3.3335,-18.7178,-28.9741,-19.7437,-49.4871,2.3076,-7.436,
28.9744,84.3586,-0.76929,21.7947,51.0256,-60.7693,45.3845,3.8459,-21.282,-31.5388,-19.7439,-45.3848,0.76929,-11.5388,
30.2566,79.4871,-3.0769,23.0769,43.5896,-57.9487,41.0256,3.0769,-18.9744,-26.1541,-18.9744,-44.1025,4.6155,-11.7947,
31.0259,74.1025,-3.8462,24.8721,53.0771,-49.4871,42.3076,3.8462,-13.5898,-20.769,-14.1025,-44.3589,14.6152,-4.3589,
29.2307,68.718,-2.5642,20.0002,53.8459,-50.2563,45.1282,2.5642,-12.8206,-20.5129,-12.3079,-39.4871,16.9231,-2.5642,
27.1794,64.1028,-3.0769,21.0256,46.1541,-48.2051,44.6155,3.0769,-13.3333,-24.1028,-15.8972,-41.5383,11.282,-12.3079,
23.3333,60.7693,-2.8206,22.3079,45.8977,-41.7947,45.3845,2.8206,-12.051,-25.8972,-15.6409,-44.8718,13.0769,-13.5896,
24.1025,65.1279,-4.1025,23.0767,51.2817,-35.8975,46.1538,2.564,-11.7949,-19.4873,-13.3335,-37.436,21.0254,-2.564,
22.5642,64.1023,-9.7439,19.4871,51.7947,-30.2566,41.5383,0.51294,-9.7439,-16.9231,-16.9231,-38.4617,16.4104,-0.51294,
20.7693,59.7434,-7.949,18.2053,47.4358,-26.9231,38.2053,0.76929,-2.8206,-22.3079,-18.718,-40.7693,10.5129,-0.76929,
18.4617,59.4871,-8.2053,18.9744,38.9744,-29.2307,30.7693,1.5383,-11.282,-29.7434,-20.5129,-41.0256,9.2307,-1.5383,
23.333,62.3076,-5.8975,16.6665,43.333,-26.9233,28.9741,4.3589,-21.2822,-26.9233,-19.7437,-42.8208,10,-4.3589,
27.4355,65.8975,-3.8462,16.1538,45.8975,-24.8721,29.4868,3.8462,-16.1538,-21.7949,-22.8208,-40.2563,5.3843,-10.5132,
28.4617,71.0256,-5.3845,20.7693,30.8975,-24.8718,28.9744,5.3845,-5.3845,-16.1541,-17.6921,-30.5129,8.9744,-5.8977,
25.8975,62.8203,-3.8462,22.3076,18.7178,-26.9233,27.4355,3.8462,-9.4873,-20.7695,-11.0259,-34.6157,15.1279,-4.3594,
21.5383,52.3074,-3.0769,22.051,33.7178,-25.6414,29.7434,3.0769,-20.5129,-26.6667,-16.4104,-40.0002,10.7693,-14.3591,
18.9744,48.718,-5.1282,24.6155,44.6155,-24.6155,34.8718,5.1282,-13.8459,-16.9231,-12.3079,-31.7947,12.8206,-7.1794,
9.7434,33.718,-10.2566,24.1028,30.2566,-37.4358,30.2566,-4.1028,-12.3079,-19.9998,-11.282,-31.7947,13.8459,4.1028,
9.4871,23.3333,-5.8977,25.3845,33.5896,-39.7437,31.5383,-5.3845,-7.4358,-19.7439,-8.9744,-25.3845,19.7434,5.3845,
9.4873,26.4102,-4.8716,22.8208,39.231,-31.5386,33.0771,-0.25635,-0.76904,-5.3848,-4.3589,-21.2822,21.2822,0.25635,
2.8208,22.3076,-12.0513,25.3848,34.6152,-30.5127,22.8208,-2.8203,-2.8203,-0.25635,-6.9229,-26.9229,15.1284,0.25635,
-1.282,17.1794,-10.0002,28.4617,30.5129,-30.5129,20.7693,-1.7952,1.282,-4.8718,-4.8718,-21.7952,18.718,6.4104,
-7.4355,14.6157,-13.5894,20.2563,18.2051,-27.9487,18.7183,0.25635,1.7949,-10,-5.3843,-24.8716,20.7695,-0.25635,
-0.5127,18.9746,-14.3589,22.564,20,-19.4873,18.9746,3.5898,0.5127,-3.0767,-4.6152,-28.7178,21.0259,-1.0254,
1.5386,13.8462,-9.7437,24.1025,22.0513,-24.6152,20,-1.5386,-1.5386,-3.0771,-8.2051,-25.1284,16.4102,5.1284,
-1.5383,13.8464,-5.6409,25.1282,11.282,-28.2048,21.0256,1.0256,-1.0256,-3.0769,-7.1794,-16.9231,19.4871,11.7952,
-3.0767,15.8975,-7.6924,23.5898,-2.0513,-27.1792,17.436,3.5898,0,0,-2.564,-18.9741,29.231,3.5898,
-2.0513,9.7437,-7.1797,27.6924,-7.1797,-34.3589,16.4102,-0.5127,7.6924,0.5127,2.564,-23.0767,28.2051,-2.0513,
-3.3333,4.8718,-4.8718,32.051,-14.1028,-41.282,16.1541,-0.76929,10.5129,-2.8206,2.8206,-19.7434,18.2053,0.76929,
-6.1538,9.231,-0.5127,30.769,-24.1025,-32.8206,16.4102,3.5898,4.1025,-0.5127,0.5127,-12.3076,16.9233,-1.5386,
-6.6667,10.2561,-3.0769,30.7693,-23.5896,-27.6924,12.8206,-0.51294,-2.0515,2.051,0.51294,-10.7693,19.4871,2.5642,
-5.8972,4.8718,-6.9231,29.4871,-12.5642,-28.9744,8.4617,-3.3333,0.76929,-0.76929,2.3079,-14.6155,23.3333,16.6667,
-7.4358,1.7947,-6.4104,28.9744,-14.1028,-27.436,6.4104,-1.7947,8.4617,-4.3591,1.7947,-17.1794,29.4871,17.1794,
-5.6409,6.6667,-3.0769,33.3333,-16.9231,-22.5642,9.7434,0.51294,9.2307,-3.5896,-0.51294,-11.7952,27.1794,10.7693,
-5.6409,5.1282,-1.0256,30.7693,-14.3591,-24.6155,13.8459,1.0256,3.0769,-2.5642,-4.6155,-9.7439,14.3591,11.7947,
-9.7437,3.0767,0,30.769,-13.8462,-25.6411,11.2817,1.5381,-0.51318,0,-4.6157,-11.7949,11.2817,13.8462,
-10.769,6.1538,-1.5386,31.2822,-12.8203,-22.0513,3.0771,-4.1025,3.5898,1.5386,-2.564,-9.7437,16.9233,16.9233,
-7.4363,6.9231,-1.7952,31.5383,-10.5129,-17.6926,3.8459,-2.8206,9.4871,1.282,-1.282,-8.9744,18.2048,16.6667,
-10.769,6.6665,-7.1792,29.7437,-14.3589,-16.9229,6.1538,0.51269,8.2051,-0.5127,-5.1279,-16.9229,10.7695,2.564,
-12.0513,10,-6.4102,25.8975,-17.6924,-13.5898,2.8203,-1.2822,7.436,2.8203,-6.9229,-13.5898,4.3589,1.2822,
-4.6155,13.8459,-1.0256,29.2307,-16.9231,-9.7434,-1.5383,1.0256,6.1536,6.1536,-5.6409,-5.6409,7.6921,15.8972,
-8.718,8.718,-7.1794,27.6921,-26.1541,-12.8206,-2.5642,2.5642,8.2048,5.1282,-3.0769,-9.2307,14.8718,13.8459,
-15.3845,1.5383,-12.8206,22.5642,-35.8975,-16.4104,1.0256,-2.0515,10.7693,5.6409,-1.0256,-10.7693,12.3079,3.5896,
-12.051,3.8459,-9.9998,28.4617,-30.5129,-15.6409,6.4104,-3.8459,7.4358,3.8459,-7.4358,-4.8718,5.3845,5.8977,
-10.7688,7.6926,-7.6921,29.2312,-25.1282,-18.9744,9.7439,-3.0769,7.6926,3.0769,-8.7175,-4.1023,9.7439,9.7439,
-16.9231,3.0769,-4.615,24.6155,-35.3845,-20.5125,4.6155,-5.1282,9.2312,4.6155,-3.0769,-7.6921,8.2053,3.5901,
-16.9233,-0.5127,2.0513,27.6924,-42.0513,-11.7949,0.5127,-4.6152,12.3076,8.2051,-1.0259,-6.1538,3.5898,5.6411,
-15.3845,0.51294,-0.51294,29.2307,-37.9487,-9.2307,-2.0515,-8.2053,12.8206,4.1023,2.051,-2.0515,10.7693,13.3333,
-16.1538,2.3076,-9.4873,27.436,-34.1025,-10.5127,-2.3076,-10.5127,14.1025,4.3589,5.3848,-2.3076,14.1025,12.564,
-14.6155,-1.282,-4.8718,25.8977,-35.1282,-11.0256,1.282,-6.4099,15.1282,5.8977,6.4104,-5.3845,9.4875,10.5129,
-11.5386,0.76904,-1.2822,28.9741,-35.6411,-13.5898,-0.25635,-6.9233,15.1279,0.25635,6.9229,-4.8721,9.4868,10,
-12.3079,9.2307,-7.1794,28.2048,-34.8718,-13.8464,0.51294,-12.3079,18.9744,-0.51294,4.1023,-7.6921,11.282,6.6667,
-14.1023,7.949,-5.3845,23.8464,-36.6665,-14.1023,3.3333,-15.6409,21.7952,0.76929,-0.76929,-14.6155,4.3591,1.282,
-11.7947,9.7439,-0.51294,24.1028,-33.3333,-15.8972,3.5896,-16.9231,20.5129,0.51294,1.5383,-8.2048,-0.51294,2.5642,
-17.9485,7.6921,-9.7434,14.3591,-31.7947,-17.9485,0.51294,-20.0002,16.4104,-0.51294,4.1028,-6.6667,2.0515,3.0769,
-25.3848,-0.25635,-15.6411,13.0771,-33.5898,-13.5898,0.76953,-16.6665,15.6411,2.3076,1.7949,-14.1025,7.436,0.25635,
-21.7952,0.76929,-13.5901,18.2048,-34.6155,-13.5901,1.282,-11.0256,16.6663,1.7947,1.7947,-8.9744,11.0256,-0.76929,
-16.9231,5.6409,-12.8206,18.4617,-33.8459,-15.8972,2.5642,-6.6667,19.9998,-0.51294,5.1282,-2.0515,11.282,0.51294,
-21.7949,5.3848,-17.6924,20.2563,-37.6924,-13.5898,-0.25635,-10.5127,17.1792,2.3076,0.25635,-9.4873,3.8462,1.2822,
-26.9229,9.4873,-18.7178,22.3081,-42.3076,-10,-1.7949,-16.1538,17.1797,10.5132,1.7949,-6.4102,2.3081,2.3081,
-25.8972,12.5642,-18.2048,22.3079,-42.3076,-12.051,-1.282,-11.5383,23.3337,13.0769,4.8718,-0.76929,5.385,0.76929,
-23.0769,13.3333,-16.4104,22.5642,-36.4104,-10.2566,-6.1541,-8.2053,24.1028,6.6667,4.6155,-4.6155,5.1282,8.2053,
-22.0515,15.3845,-9.2307,21.0256,-33.8464,-5.1282,-6.6667,-13.3333,26.6667,6.6667,7.1794,-5.6414,5.1282,17.9485,
-19.4873,19.4873,-11.7949,20.5127,-36.9229,-5.1284,-5.6411,-12.3076,33.8462,13.8462,6.1538,-3.0771,3.0771,11.2822,
-19.9998,15.8972,-18.9744,14.8718,-41.5386,-7.6921,-8.2053,-9.7434,33.8459,16.9231,1.5383,-1.0256,1.0256,4.6155,
-23.8462,10,-14.1025,8.4614,-45.3848,-11.5386,-11.0259,-17.1797,25.8975,13.5894,2.3076,-2.3076,2.3076,11.5381,
-21.7947,18.718,-8.4617,18.2053,-39.7434,-7.9485,-10.5129,-13.0769,25.3845,15.1282,5.8977,-2.8206,2.8206,10.5129,
-17.9485,23.0769,-10.2566,23.5896,-34.8718,-2.0515,-9.7434,-2.0515,34.8718,21.5383,5.6409,1.5383,2.0515,-1.5383,
-19.7434,17.1794,-11.0256,18.718,-39.2307,-4.8718,-11.5383,-8.4617,31.0256,20.2566,-0.25659,0.25659,2.8206,2.8206,
-17.4358,18.9744,-5.6409,21.0256,-34.8718,-6.1541,-8.718,-12.3079,22.0515,18.4617,2.0515,-2.0515,5.6409,17.8206,
-17.6921,16.1541,-6.4104,21.282,-42.3076,-8.9744,-10.5129,-9.4871,16.6667,12.0515,3.3333,-3.3333,3.3333,10.5129,
-21.2817,11.0259,-8.9741,23.3335,-55.1279,-7.9487,-14.1025,-6.9229,19.7437,8.9746,1.7949,-1.7949,1.7949,4.8721,
-18.4614,14.3589,-8.2051,26.6665,-47.1794,-2.564,-10.769,-7.1797,23.0767,13.3335,4.6152,-2.564,2.564,18.4614,
-17.1797,14.6152,-3.8462,27.9487,-45.3848,-8.4614,-11.5386,-12.564,21.7949,13.5898,5.3848,-4.3589,3.8462,21.7949,
-23.5898,8.2051,-3.5898,25.1279,-60.3848,-16.4102,-15.3848,-14.8721,22.564,13.8462,3.5898,-5.1284,5.6411,9.2305,
-20.5129,18.4617,-7.6921,22.5642,-57.4358,-1.4102,-15.8972,-9.7434,22.5642,15.3845,-1.0256,-7.1794,1.0256,10.7693,
-6.1538,33.4617,-11.2822,26.6665,-42.4358,13.5898,-13.8462,-5.1284,21.0259,17.436,-0.5127,-5.6411,0.5127,22.564,
-3.8462,44.3589,-13.5898,23.3335,-37.1792,23.8462,-16.1538,-7.9487,16.6665,12.0513,-0.25635,-8.9741,0.25635,14.1025,
-0.5127,53.3335,-10.2563,25.1284,-38.9741,18.4614,-14.8716,0.5127,15.8975,8.2051,-1.5386,-9.7437,-0.5127,6.6665,
1.7947,58.2048,-17.1794,17.6921,-43.3333,21.282,-20.7693,-1.282,8.4612,1.282,-10.5129,-12.5642,-8.4617,11.5383,
7.9487,58.7183,-14.1025,19.7437,-41.2817,26.9233,-22.8203,-4.3589,10.5127,4.3589,-6.4102,-7.9487,-5.3843,18.7183,
11.5386,65.3848,-12.0513,23.8462,-30,27.9487,-19.2305,-3.8462,7.436,3.8462,-7.4355,-3.8462,-8.4614,11.0259,
15.8975,72.3081,-12.8203,18.4619,-23.5894,30.2568,-8.7178,-2.0513,5.1284,2.0513,-10.769,-2.564,-12.8203,10.2568,
7.6921,60.5129,-15.8977,16.9231,-37.4358,27.6921,-13.8464,-5.1282,6.1536,5.1282,-12.8206,-7.6921,-13.8464,11.7947,
0.5127,54.3589,-13.8462,25.6411,-45.1279,27.1797,-22.564,-1.0254,11.2822,13.3335,-6.6665,-0.51269,-6.1538,12.8203,
0.76929,52.5642,-12.5642,24.3591,-45.8972,21.7947,-22.8206,-0.25659,8.9744,5.3845,-7.4358,-0.76929,-5.8972,0.25659,
11.7947,59.4871,-6.6667,27.1794,-35.8977,30.2561,-11.7952,2.5642,13.3333,5.6409,-5.6409,-6.1541,-2.5642,-2.5642,
2.8206,51.0256,-10.5129,18.718,-41.282,28.4612,-18.718,-10.0002,11.5383,3.3333,-7.949,-12.5642,-2.8206,9.9998,
-1.0256,44.1023,-9.2307,23.0769,-45.6411,19.9998,-21.0256,-12.8206,13.3333,1.0256,-4.1028,-4.1028,2.051,24.9998,
1.5383,43.0769,-6.6667,28.2048,-41.5388,22.051,-18.9744,-6.1541,12.8201,-1.0256,-5.1287,-5.1287,1.0256,20.5125,
1.7949,43.3335,-4.3589,18.7178,-38.2051,31.5386,-18.2051,-6.9233,12.0513,4.8716,-5.8975,-10.5127,-1.7949,7.9487,
4.1025,44.1025,-5.1279,18.4614,-40,30.2563,-18.4614,-13.8462,10.769,10.2563,-5.6411,-4.1025,-5.1279,5.6411,
6.4102,40.769,-6.4102,22.8203,-43.3335,28.4614,-18.2051,-11.5386,10,10.5127,-7.9487,-1.7949,-5.8975,1.7949,
1.5386,36.4102,-8.7178,18.9746,-49.2307,33.3335,-22.0513,-7.1792,6.6665,8.2051,-9.7437,-4.1025,-1.5386,3.5898,
-6.9233,32.564,-12.5645,18.7178,-53.0771,40.769,-25.8975,-9.4873,6.4102,6.4102,-8.4614,1.7949,-1.7949,14.1025,
-8.718,30.2561,-8.718,24.1023,-54.3591,45.1282,-21.5383,-12.8206,11.7947,5.6409,-5.1282,5.1282,-5.1282,11.7947,
-2.3076,40.2563,-3.8462,31.0254,-56.1538,51.0254,-17.6924,-7.436,14.1025,3.8462,-2.3076,0.76904,-0.76904,2.3076,
-1.5386,42.564,-5.6411,34.3589,-58.4614,53.8462,-20,-2.564,13.3335,0,0,-2.0513,6.1538,3.5898,
-4.8721,34.6152,-5.3848,36.1538,-55.6411,51.5386,-19.231,-7.436,12.564,-0.76904,0.25635,-0.25635,1.2822,15.1279,
-3.0771,46.6665,-1.5386,37.9487,-44.6155,55.3843,-14.3589,-6.1538,8.7178,4.6152,-3.5898,1.5386,-2.5645,18.9741,
-4.8721,51.0254,-2.3076,32.0513,-49.4873,55.1279,-15.1284,-3.8462,2.3076,4.8716,-6.4102,-4.3589,4.8716,8.9741,
-2.5642,43.5896,-2.5642,34.8718,-55.3845,57.949,-15.8972,-3.5896,2.5642,3.5896,-2.5642,-5.1282,10.2566,9.7434,
-0.76929,42.3079,-9.4871,29.4871,-48.4614,56.6667,-18.718,-8.4617,0.76929,1.7952,-9.9998,-5.8972,1.282,14.6155,
2.0513,50.2563,-6.667,23.5894,-36.9233,55.3843,-14.3594,-6.667,8.7178,7.1792,-8.2056,-4.103,-2.0513,12.3076,
1.0256,50.2561,-3.0769,26.6667,-42.5642,56.9231,-14.8718,-2.0515,11.7947,7.6921,-5.1282,-3.0769,0.51294,-0.51294,
-3.0774,44.1023,-5.6414,27.1794,-57.5642,57.4358,-20.0002,-3.5901,1.5383,2.051,-10.7693,-1.0256,1.0256,3.0769,
-2.0515,42.5642,-4.1028,29.7434,-59.4873,54.3591,-12.8206,-6.6667,0.51294,3.5896,-8.2053,-0.51294,4.6155,18.0769,
-7.4358,35.1282,-5.8972,27.949,-59.7434,40.7693,-15.1282,-16.6663,4.8718,2.8206,-2.8206,-9.9998,3.8464,25.8977,
-11.2822,26.6665,-3.0771,30.2563,-73.8462,36.4102,-27.1797,-22.0513,7.1792,-2.0513,2.0513,-15.3848,3.5898,10.8977,
-6.1541,25.6409,0.51294,37.9485,-78.4617,42.051,-24.1028,-13.8459,7.6921,-2.5642,-0.51294,-7.6921,9.2307,2.5642,
-5.1282,29.2307,-4.1023,35.3845,-63.4617,44.1028,-14.3586,-9.2307,6.1541,1.0256,-7.1794,-1.0256,7.1794,9.7439,
-4.3591,40.2566,-6.9231,32.051,-48.4617,51.5383,-14.6155,-7.949,2.8206,5.3845,-6.9231,-2.8206,3.8459,15.6409,
-2.0513,41.0259,-6.6665,31.7949,-53.8459,51.7949,-15.3843,-8.7178,2.0513,2.5645,-5.1279,-7.1792,8.7183,12.8208,
-2.8206,34.6155,-3.8464,31.5383,-54.1025,45.8972,-5.8977,-8.9744,4.3591,0.76929,-0.76929,-4.3591,14.1023,8.4617,
-13.0769,32.0515,-9.4871,30.0002,-55.6409,45.3845,-17.6921,-12.051,2.3079,2.8206,-3.3333,-2.3079,3.8464,8.9744,
-18.7183,35.6406,-13.0771,26.9229,-70.6409,45.8975,-32.6921,-10,2.3076,6.9229,-8.9746,1.7949,-1.7949,12.0513,
-14.6152,39.231,-13.0767,18.7183,-70,40.2563,-27.436,-12.564,-1.7949,4.3589,-16.1538,1.7949,7.436,7.436,
-1.7949,42.8203,-7.436,19.2305,-55,42.8203,-12.436,-17.1797,0.25635,4.3589,-8.9746,-0.25635,18.2051,14.1025,
-3.3335,35.6411,-7.436,19.7437,-40,38.7178,-12.0513,-17.6924,3.3335,3.3335,-8.4614,-3.3335,10.5127,14.1025,
-7.6924,32.3076,-14.8721,21.5386,-35.3848,31.7949,-18.9746,-12.8208,-2.0513,3.5898,-15.8975,2.0513,2.564,5.6411,
-5.1282,30.7693,-15.3845,19.4871,-27.1794,32.8206,-10.2561,-14.8718,-5.1282,7.1794,-12.8206,6.6667,5.1282,6.1541,
-6.4102,23.333,-7.436,22.8203,-29.4873,30,-5.8975,-17.1797,-1.7949,3.333,-10,1.7949,4.3589,13.5898,
-7.9487,25.8975,-2.3076,31.5386,-41.282,28.4619,-6.4102,-14.1025,0.25635,-0.25635,-9.4868,1.7949,3.8462,11.5386,
-2.3076,27.9487,-2.3076,26.9233,-36.1538,29.4873,-2.3076,-14.6152,0.25635,-0.25635,-6.9229,1.7949,12.5645,3.8462,
0,23.5898,-2.564,25.6411,-33.8462,27.1797,-5.1279,-13.8462,3.0771,0,-9.2305,0,11.7949,10.2563,
-10.7693,22.051,-5.1282,25.1282,-44.6155,25.1282,-13.8459,-11.7947,4.1028,-1.0256,-11.7947,1.0256,2.5642,12.8206,
-14.1028,19.7434,-7.949,24.3591,-45.3848,26.9231,-12.5642,-14.1028,4.3591,3.8459,-9.4871,-1.282,1.282,5.8972,
-11.0256,19.2307,-6.4104,27.9485,-35.6409,21.7947,-8.4617,-16.1541,4.3591,7.4358,-8.9744,-4.3591,4.8718,9.4871,
-13.5896,17.1794,-5.8972,24.3591,-35.1282,17.1794,-12.5642,-19.2307,5.3845,5.3845,-8.9744,-3.3333,3.3333,11.5383,
-15.3848,14.3589,-4.6152,21.5386,-41.0256,21.5386,-13.3335,-18.9746,12.8203,6.1538,-3.0771,-1.5386,1.5386,5.6411,
-17.1794,6.9231,-7.9485,16.6667,-41.282,15.6409,-11.5383,-23.3333,13.5896,1.7952,-1.282,-2.8206,1.282,1.7952,
-12.564,5.3848,-4.3589,17.1792,-37.1797,6.4102,-10.5127,-27.436,12.0513,1.7949,-1.2822,-5.8975,2.3076,1.2822,
-8.2051,13.3335,-2.0513,25.6411,-35.8975,8.2051,-9.7437,-22.0513,16.4102,6.1538,2.0513,-8.2051,2.5645,-2.564,
-16.9229,11.7949,-9.7437,20,-40.5127,6.1538,-8.2051,-23.5898,15.8975,0,0,-8.2051,0,1.5386,
-18.9746,15.8975,-6.667,19.4873,-41.0259,4.1025,-0.5127,-27.1797,14.8716,0,0,-1.0259,4.1025,13.333,
-16.6665,17.1797,-6.4102,20.2563,-43.8462,3.3335,-0.25635,-25.3848,8.9746,0.25635,-1.7949,-4.8716,2.3076,4.3589,
-12.3076,20.5127,-4.1025,22.5645,-37.9487,10.2563,2.0513,-15.8975,10.2563,-2.0513,3.0771,-5.1279,5.1284,-2.564,
-9.7437,22.564,-4.1025,24.1025,-40.5129,10.2563,2.564,-19.4873,5.6411,-9.231,0,-7.6924,4.1025,0,
-5.8975,22.3076,-1.7949,23.8462,-43.8462,10.5127,2.8203,-22.3076,4.3589,-4.3589,-2.3076,-11.5386,1.7949,6.4102,
-7.436,19.7437,-6.4106,24.8716,-36.667,15.6406,-0.25635,-19.231,9.4868,3.333,-2.3081,-10,0.25635,5.8975,
-6.6665,16.4102,-8.2051,26.1538,-30.769,18.9746,2.0513,-18.4614,11.7949,4.1025,-2.0513,-11.7949,3.0771,-2.0513,
-5.6411,10.769,-6.667,22.0513,-41.5386,9.7437,5.1279,-20.5132,9.2305,1.5386,-1.5386,-18.4614,4.6152,-5.6411,
-10.5129,8.4612,-15.1282,18.2048,-46.9233,5.3845,-1.282,-23.3337,6.9231,1.282,-2.3079,-13.0769,1.7947,7.4358,
-12.8203,9.231,-16.9229,17.436,-41.5386,10.769,-2.0513,-23.5898,8.7178,2.0513,-2.0513,-9.231,2.564,15.8975,
-9.4873,12.564,-8.4614,21.2822,-38.7178,11.5386,2.8203,-19.231,7.436,-1.7949,-3.8462,-12.564,1.7949,6.9229,
-5.1282,21.0256,-4.1028,22.5642,-33.8459,12.8206,4.6155,-11.282,11.7947,5.1282,-0.51294,-5.1282,0.51294,-0.51294,
-8.2051,18.9741,-7.6924,19.4873,-36.9233,13.333,1.0254,-9.7437,16.9229,9.7437,0,-3.0771,0,-2.0513,
-7.1797,18.9746,-8.2051,25.1284,-43.5898,14.8716,9.231,-9.231,9.7437,5.1284,-3.5898,-6.1538,-2.0513,2.0513,
-4.3589,25.8975,-5.3848,25.3848,-42.8206,14.1025,19.7437,-9.4873,1.7949,3.3335,-2.8208,-4.3589,-1.7949,9.4873,
-6.1538,27.1792,-6.1538,21.0254,-41.0259,8.7178,17.436,-12.8208,4.1025,2.0513,-2.564,-3.5898,-2.0513,13.8462,
-8.7183,21.5386,-9.231,22.564,-47.1797,8.2051,13.8462,-15.8975,8.2051,-1.5386,-3.5898,-2.564,1.5386,13.333,
-11.7949,12.8203,-10.7695,22.0513,-54.8721,5.6406,11.2817,-23.0771,4.1025,-9.7437,-4.1025,-7.6924,4.1025,10.769,
-3.0771,17.9487,-4.1025,28.7178,-40,9.231,12.8203,-20,3.0771,-10.2563,-3.0771,-10.2563,6.1538,8.7178,
-2.0513,22.0513,-2.564,29.231,-31.7949,15.8975,18.9741,-11.2822,5.6411,-9.231,-0.5127,-10.2563,6.1538,0.5127,
-10.0002,15.1282,-7.4358,23.3333,-46.7949,11.5383,17.1794,-16.1541,4.8718,-11.0256,0.76929,-16.1541,3.8459,-0.76929,
-7.1794,12.8206,-3.5896,24.6155,-48.2051,6.6667,8.718,-18.9744,8.2053,-7.6921,-3.0769,-22.051,3.0769,3.0769,
-1.2822,15.1279,4.3589,24.3589,-36.1538,11.5386,10.5127,-12.0513,14.1025,0.25635,-7.436,-21.2822,-0.25635,-2.3076,
-3.8462,17.6924,1.2822,21.7949,-46.4104,16.6665,14.1025,-12.564,11.0254,2.8203,-5.8975,-20.2563,-1.7949,-1.2822,
-5.3848,18.2051,-3.3335,20.2563,-58.2053,10.5127,12.0513,-21.2822,4.8716,-0.25635,-4.3594,-21.2822,0.25635,8.9741,
-0.25635,21.2817,0.25635,22.3076,-43.2053,12.564,15.1279,-18.2051,1.7949,-2.3081,-4.8721,-14.1025,-2.8208,7.9487,
-1.0256,21.5383,-2.0515,27.1794,-30.2566,26.6667,15.8972,-7.1794,4.1023,-1.5388,-1.5388,-10.2566,3.5896,1.0256,
-8.718,14.8718,-5.6409,26.6667,-45.2566,25.1282,9.2307,-6.6667,6.1541,-1.0256,-0.51294,-15.8972,14.3591,0.51294,
-10.7693,15.3845,-3.0769,26.1536,-49.7439,16.4099,13.3333,-11.7952,4.1023,1.0256,-4.1028,-14.8718,13.8459,-1.0256,
-11.2822,14.8716,-2.0513,21.0254,-36.4102,17.9487,18.9741,-15.8975,1.0254,0,-3.0771,-13.3335,5.1279,0,
-9.4873,9.4873,0.25635,17.6924,-39.2305,19.231,16.1538,-16.1538,1.7949,-0.25635,-0.25635,-13.0767,-0.25635,7.9487,
-12.8206,6.1536,-1.5383,20.5129,-48.2053,11.282,13.3333,-16.9231,1.0256,1.0256,-3.5896,-12.8206,-1.0256,11.282,
-17.9487,5.1279,-3.0771,22.564,-47.6924,7.1792,14.3589,-18.9746,1.5386,-3.0771,-1.5386,-17.9487,3.0767,6.6665,
-13.3335,6.6665,-1.5386,26.1538,-47.1794,10.2563,14.3589,-12.8203,1.5386,-6.1538,1.5386,-23.0771,4.1025,-1.5386,
-5.1282,9.2307,-1.5388,26.1536,-45.6411,15.8972,19.4871,-4.6155,3.5896,-2.5642,-1.0256,-16.9231,1.0256,1.0256,
-6.1538,7.1797,0,22.564,-47.6924,14.3589,18.4614,-8.7178,5.1284,-4.1025,-3.5898,-15.8975,1.0254,0,
-11.0256,2.8206,0.76929,25.8977,-51.0254,7.949,12.5642,-14.615,4.8718,-5.8972,-0.76929,-20.2561,4.3591,-6.4099,
-14.615,-4.3586,-3.3333,23.8464,-53.5896,3.8464,16.1541,-16.1536,3.8464,-3.3333,3.3333,-16.1536,6.4104,3.8464,
-15.6411,-8.9741,-5.8975,22.8208,-54.1025,4.3589,19.7437,-16.6665,2.3076,-1.2822,1.2822,-13.0767,6.9233,13.5898,
-13.8459,-4.1023,-2.5642,28.2053,-48.7178,8.718,18.4617,-13.8459,5.6414,1.5383,-1.5383,-11.7947,7.1794,6.6667,
-11.5383,-1.282,-1.282,27.4358,-47.4358,10.5129,18.718,-14.1023,7.4358,4.8718,1.282,-8.4617,5.8977,-4.8718,
-9.2305,0,-1.0254,27.6924,-48.2051,12.3076,20.5127,-13.8462,3.0771,3.0771,0,-6.1538,4.1025,-1.0254,
-8.9741,-0.76904,0.25635,26.4102,-47.9487,7.9487,20.769,-11.5386,0.76904,0.25635,-6.9229,-12.564,2.8208,-0.25635,
-9.9998,-0.25659,0.25659,29.4871,-46.9231,4.3591,20.2566,-8.9744,1.282,3.3333,-5.8972,-14.6155,4.3591,-3.3333,
-10.5127,1.7949,-5.8975,30,-42.8206,6.4102,15.6411,-11.5386,-1.2822,1.2822,-4.3589,-8.4614,1.7949,4.3589,
-9.4871,7.9485,-5.3845,24.8718,-39.7434,11.5383,15.1282,-11.0256,-0.25659,1.7947,-3.8464,-1.282,0.25659,14.6155,
-8.9746,12.0513,-2.3076,20.769,-44.3591,13.5898,15.6411,-11.0259,-1.2822,3.3335,-4.8721,-8.4614,1.2822,7.436,
-7.6921,12.8206,-1.0256,20.5129,-40,14.3591,19.4871,-10.2566,1.0256,4.6155,-1.0256,-15.8972,6.1541,-1.5383,
-6.9229,13.0771,-3.333,20.7695,-34.1025,12.5645,22.3076,-9.4868,4.8721,5.8975,0.25635,-8.9741,-0.25635,-2.3076,
-4.3591,8.9744,-4.3591,19.2307,-39.7437,12.051,22.8206,-11.5383,7.9485,5.3845,1.282,-5.8977,-4.8718,-1.282,
-4.8718,-3.8459,-1.282,18.718,-47.4358,10.0002,22.3079,-16.1536,6.9231,1.282,2.3079,-14.6155,2.8206,-2.8206,
-6.4102,-2.8208,0.25635,23.8462,-43.8462,4.8716,23.3335,-16.6665,3.8462,-0.25635,0.25635,-14.6152,8.9741,-7.436,
-8.718,3.0769,-3.5896,17.4358,-47.1794,-1.0256,18.4617,-14.3586,2.0515,1.0256,1.0256,-8.718,4.6155,-10.2561,
-11.7952,-0.51294,-5.1282,15.8972,-53.8462,1.5383,14.3586,-13.3333,0.51294,0.51294,1.0256,-8.2053,2.5642,-0.51294,
-14.3589,-3.5898,-4.1025,25.6411,-51.2822,6.1538,17.4355,-13.3335,1.5386,2.564,-1.5386,-9.231,3.5898,8.2051,
-17.1792,-7.4355,-1.2817,25.3848,-55.6409,0.76953,16.667,-13.0767,7.9487,3.8462,-0.25635,-11.0254,2.3076,0.25635,
-14.6155,-10.5129,2.3079,25.8972,-58.718,-2.3079,11.5383,-7.4358,10.5129,3.3333,6.9231,-9.4871,7.4358,-11.5383,
-14.3589,-8.7178,0,24.6152,-51.282,0,11.2822,-6.1538,7.1797,3.5898,8.7178,-6.1538,7.6924,-10.769,
-15.3843,-4.6152,-0.5127,18.9746,-47.6921,1.5386,17.9487,-10.769,5.6411,1.5386,0.5127,-4.6152,-4.6152,4.231,
-12.3076,2.0513,2.564,20.5127,-45.1282,4.1025,22.564,-6.6665,0,0,-6.1538,-8.7178,-8.7178,13.8462,
-9.9998,4.3591,3.8459,22.8206,-48.4614,6.4104,19.2307,-1.7947,-8.9744,0.76929,-4.3591,-11.5383,5.8972,-0.76929,
-8.9741,2.8203,2.8203,25.8975,-63.4614,4.8716,13.0771,-2.3076,-6.9229,0.76904,-0.76904,-7.436,14.6152,-4.3589,
-10.5127,-1.2817,3.3335,25.8975,-78.2051,3.8462,11.5386,-3.333,0.25635,-0.25635,-1.2817,-2.8203,8.4614,8.9746,
-6.4104,-4.3591,6.4104,25.3845,-75.6411,5.8972,17.1794,-2.8206,-1.282,0.25659,-0.76929,-0.25659,4.3591,13.5896,
-4.8716,-4.8716,1.7949,25.8975,-68.4617,0.25635,14.1025,-2.8203,-6.9229,0.76904,-1.7949,-0.25635,0.25635,4.3589,
-6.667,-2.0513,2.564,28.2051,-67.6924,-1.5386,9.7437,2.0513,0,1.5386,1.0254,0,0,-5.6411,
-8.9744,-3.8464,2.8206,29.9998,-73.0769,4.8718,6.4104,1.282,-0.76929,-0.25659,0.76929,-4.8718,0.25659,-8.4617,
-8.2051,-7.6924,0,31.2822,-71.282,7.1797,6.667,-1.0254,-11.2817,0,0.51318,-2.0513,1.5386,4.6157,
-9.231,-11.2822,1.0254,31.2817,-66.667,0,9.2305,-4.6157,-11.2822,0,2.564,-1.0259,4.1025,15.897,
-8.4617,-10.5129,4.8718,35.1282,-66.9231,-2.8206,9.9998,-3.3333,0.25659,-0.25659,2.3079,-6.4104,5.3845,8.4617,
-7.1797,-7.6924,4.6152,33.3335,-69.7437,2.564,6.1538,-1.5386,4.6152,0.5127,-0.5127,-5.1284,5.6411,-2.564,
-10.2563,-7.1797,0.5127,31.7949,-67.6924,4.6152,2.0513,-1.5386,-1.5386,-0.5127,0.5127,-1.0254,6.1538,3.0771,
-9.7437,-11.7949,3.5898,34.3589,-65.1282,0.5127,4.6157,-2.564,-0.51269,-2.0513,6.1538,-1.5386,7.1797,10.2563,
-5.1284,-9.7437,10.2563,35.8975,-61.0256,0.5127,7.6924,-2.0513,6.6665,-2.564,7.1797,-4.1025,6.6665,-0.5127,
-2.0515,1.5383,5.1282,35.3845,-54.8718,8.2048,5.6409,-1.0256,3.5896,-5.6414,1.0256,-8.2053,-3.5901,-11.7952,
-0.25635,0.76904,2.3076,27.436,-54.6155,6.9229,7.436,-1.7949,-0.25635,-8.4614,2.3076,-12.0513,-6.4102,0.25635,
-3.8464,-6.4104,4.3591,25.3845,-61.7949,-2.8206,7.9485,-5.3845,2.8206,-7.4358,6.4104,-9.4871,5.8972,7.4358,
-5.1282,-1.5383,4.6155,29.7439,-61.5383,-0.51294,6.6667,-3.0769,6.6667,0.51294,7.6926,-1.0256,10.7693,-6.1536,
-2.8206,-5.8977,7.4358,26.4099,-58.718,1.282,6.4099,-3.8464,4.3586,0.76929,6.4099,-1.7952,-0.76929,-12.5642,
2.5645,-9.7432,12.8208,32.3081,-53.333,0,8.2056,-1.5381,4.103,-4.1025,6.667,-0.5127,0,-3.0767,
-0.76953,-8.9746,7.436,36.1538,-52.0513,-1.2822,5.8975,-0.25635,1.2817,-7.436,5.8975,0.25635,9.4873,-6.4102,
-3.0769,-9.7434,6.1541,35.8972,-51.282,1.0256,5.1282,-1.0256,1.0256,-6.6667,8.2053,-3.5896,8.718,-13.8459,
-0.76929,-7.949,11.0256,36.6663,-44.8721,4.3586,4.8718,-1.7952,0.76929,-4.3591,7.9485,-8.4617,5.8972,-5.8977,
-2.5642,-5.6409,8.718,32.3079,-46.1538,1.5388,5.6414,1.0256,-1.0256,-5.1282,5.1282,-9.2307,4.6155,-1.0256,
-2.3076,-3.8462,4.3589,34.6152,-50.5129,2.8203,6.9229,7.9487,-0.25635,0.25635,4.3589,-2.8208,-2.3076,-0.25635,
-4.3586,-7.4358,7.4363,34.1028,-51.0254,7.949,-0.76929,4.3591,-3.8459,2.8206,0.76929,-3.8459,-6.4099,4.3591,
0.5127,-5.1284,15.3848,36.4102,-44.6155,10.2563,0,0,-5.1284,-1.0259,4.6152,-9.231,-2.0513,3.5898,
3.3335,0.25635,8.9746,36.1538,-40.2563,2.8208,6.9233,-0.25635,-2.8203,-4.3589,3.8462,-7.9487,-0.76904,-4.8716,
-0.25635,0.25635,3.3335,32.0513,-46.9229,1.2822,2.8208,1.7949,-4.3589,1.2822,-3.333,-2.3076,-3.8462,-2.3076,
0.76929,-0.76929,7.4358,34.6155,-54.1025,6.9231,-3.3333,5.3845,-11.0256,4.8718,-5.3845,-3.8464,-8.9744,1.282,
4.3591,-2.8206,7.949,36.1541,-54.1023,6.9231,-0.76929,4.3591,-7.9485,0.76929,2.3079,-2.8206,-3.8459,-2.3074,
0.76904,-7.436,5.8975,32.0513,-55.1282,3.3335,-0.25635,0.25635,-2.8203,-0.76904,8.4614,-1.2822,7.9487,-2.8203,
-6.6667,-10.7693,8.718,32.8206,-54.8718,3.0769,-1.5383,2.0515,-3.0769,-1.0256,4.6155,-5.1282,8.2053,1.0256,
-5.1282,-11.7949,11.7952,36.9231,-55.8975,1.0256,2.0515,4.6155,-1.5383,-5.1282,4.1028,-5.1282,1.0256,-1.0256,
-1.0254,-10.7693,10.2563,40,-60,0.51269,0.51269,5.1284,-2.0513,-4.6152,3.0771,-0.5127,1.0259,-5.6411,
-1.7949,-10.5127,5.3848,35.6411,-57.6924,5.3848,-0.25635,6.9229,-4.3589,-3.3335,0.25635,-3.8462,1.7949,0.25635,
-2.5645,-9.231,6.6665,33.8462,-50.7693,7.1792,2.0513,5.1279,-4.1025,-2.0513,4.1025,-4.1025,-3.0771,10.769,
-5.3845,-9.4871,7.9485,37.6921,-52.0513,4.3586,-3.3333,1.7947,-3.3333,-1.282,4.8718,1.282,-3.3333,6.9231,
-4.1025,-11.282,8.2051,38.4614,-54.8718,4.6152,-1.5386,8.2051,-0.5127,0.51269,5.6411,-1.0254,2.564,-3.5898,
-0.51294,-10.7693,5.6409,38.4617,-56.4104,0.51294,2.051,6.1536,-1.5383,-3.5896,3.5896,-6.1541,2.5642,-5.1282,
-2.8206,-8.9744,2.3079,38.2053,-55.1282,1.282,-0.25659,0.25659,-2.3079,-4.8718,4.8718,-2.8206,1.282,4.8718,
-6.1541,-10.2566,4.1023,28.718,-53.3335,6.1536,-0.51294,5.1282,-2.0515,-5.6409,1.5383,-3.0769,0.51294,7.6921,
0,-10.7693,8.7178,31.2822,-55.8975,4.1025,4.1025,6.1538,-5.6411,-7.1797,-1.0259,-5.1284,0,2.0513,
2.051,-15.8975,7.1794,37.9485,-63.0769,-3.5896,4.1023,-2.5642,-7.1797,-1.5383,5.6409,-0.51294,0.51294,2.5642,
-6.6665,-23.0769,7.6924,40,-67.6924,-4.1025,0.5127,-0.51269,-3.0771,-1.5386,6.1538,4.1025,3.0767,7.1792,
-6.4099,-19.2307,10.5129,38.2053,-60.769,-1.282,2.3079,5.8977,-1.282,-6.9231,1.282,1.7952,5.8977,-3.3333,
0.5127,-13.8462,15.8975,37.436,-49.231,-0.5127,8.2051,4.1025,-3.0771,-4.1028,3.5898,-1.0259,7.1792,-6.6667,
-2.5645,-21.5386,13.8457,38.9741,-55.8977,-0.51318,5.1279,1.0254,-8.7183,-5.1284,0,0,3.5894,5.1279,
-5.8975,-27.436,11.5383,38.2053,-63.8462,-1.282,2.8206,0.76929,-10.5129,-9.4873,-0.76929,2.3079,6.4104,8.4617,
-1.5388,-21.5386,12.3074,43.5896,-56.9233,-1.0256,6.1536,1.0256,-8.2053,-6.667,4.1023,-1.0256,7.1794,4.1023,
-1.0256,-15.8972,13.8464,49.7439,-51.7947,1.0256,5.6414,3.0769,-5.1282,-2.564,5.1282,-1.0256,-1.5383,9.2307,
-7.436,-20.2563,12.5642,44.3591,-62.3079,-0.76929,3.3333,-0.25659,-3.3335,-7.9487,2.8206,1.282,0.25659,5.8972,
-5.1283,-19.4872,12.3077,45.1281,-63.5897,0.51282,5.1281,3.5897,-0.51282,-7.1796,7.1793,-1.0258,12.8204,-4.6154,
-2.5641,-22.5641,13.8461,44.6156,-54.3588,-1.5385,3.5897,6.1542,1.5385,-2.5641,11.7948,-3.5897,12.8207,-1.5385,
-4.1025,-29.2307,15.8972,46.1541,-56.9231,-3.0769,2.564,-1.0256,1.0256,-2.5642,13.8459,-1.0256,10.7693,3.0769,
-8.4615,-31.5385,13.5897,45.3846,-64.359,-3.3334,1.7948,-2.8204,-1.7948,-3.3334,10.5131,1.7948,15.1283,4.3593,
-11.5383,-30,11.5386,38.2051,-64.3589,-8.9744,-0.76929,0.76929,-3.3333,-4.8718,4.8721,2.3076,5.8975,4.8721,
-2.564,-18.4614,13.8464,44.6155,-54.8716,-5.1282,8.2053,6.6667,1.0256,-3.5896,7.6926,5.6414,-3.0769,-1.0256,
-5.1283,-19.4872,10.7689,46.6664,-58.4615,-4.1027,10.7689,3.077,-3.077,-9.7438,6.6664,3.077,5.1283,-9.7438,
-12.5641,-28.4615,9.4872,44.8719,-64.359,-6.4103,1.7948,1.2821,-6.923,-15.1281,3.8461,3.3334,16.1537,-1.2821,
-10,-25.8975,8.4617,45.8972,-60.2566,-4.8718,-2.8206,3.3333,-5.8975,-12.0513,2.8206,4.8718,13.5896,3.8459,
-8.9744,-24.8718,11.5383,43.3333,-61.282,-0.76929,0.76929,5.3845,-5.8975,-8.9744,3.8462,2.8206,8.4617,-6.4102,
-8.7179,-28.7179,13.8461,46.1542,-55.8973,-0.51282,2.0514,6.1542,-9.7435,-12.8204,1.5385,0.51282,5.1283,-2.0511,
-9.4871,-28.9744,7.949,46.4104,-44.3589,-2.3076,1.282,5.8977,-13.0769,-15.6409,-1.282,4.3591,4.8718,12.0515,
-16.4102,-32.8203,6.1541,44.1028,-52.8203,-5.1282,-1.0256,3.0769,-10.2563,-11.282,1.0256,4.1028,5.1282,9.2307,
-11.7948,-28.2052,11.2821,48.7181,-51.7948,-0.51282,0.51282,6.6669,-5.641,-4.1027,6.6669,4.6156,7.6923,-0.51282,
-7.1793,-25.1281,6.1542,41.0258,-45.641,0.51282,-0.51282,5.1283,-8.205,-11.2819,2.5641,3.5897,6.1542,-7.6923,
-10.5127,-32.564,5.8977,40.7693,-51.0256,-3.3333,-0.76929,1.7949,-10.5127,-15.1282,0.76929,1.7949,7.4358,2.8206,
-11.2819,-34.8717,9.2311,45.6412,-54.8717,-6.6666,-0.51282,0.51282,-12.3075,-12.8204,3.077,0.51282,8.7179,6.6666,
-4.6152,-23.0769,12.3076,43.0771,-48.7178,-2.0513,3.0769,5.1282,-11.282,-10.2563,2.0513,2.5642,7.1797,-6.1538,
-7.6921,-22.564,10.2566,42.0515,-55.8975,1.0256,2.0513,11.7952,-9.7434,-11.282,-1.0256,6.1541,1.0256,-5.1282,
-13.8462,-35.3845,8.2051,46.1538,-63.0769,-3.0769,0,10.2563,-8.7178,-13.3333,3.0769,9.231,0,9.8718,
-14.6152,-33.0769,4.8718,45.8977,-54.1025,-5.3845,3.8462,-0.25635,-15.6411,-15.6411,0.76929,4.8718,0.25635,5.8977,
-5.8975,-19.7437,10.5127,45.8975,-39.1025,0.25635,13.0771,1.282,-16.1538,-7.9487,-0.25635,5.3848,3.3333,-3.3333,
-5.1282,-23.0769,14.8718,44.1028,-42.5642,-3.5898,6.1541,5.6409,-14.3589,-6.1538,-1.0256,7.6921,1.0256,1.0256,
-8.205,-30.2562,14.359,47.1798,-55.3846,-5.641,-2.5641,6.6666,-9.2306,-9.7435,4.1027,5.641,4.1027,2.5641,
-8.4617,-35.6411,16.6667,52.051,-59.7437,-4.3589,2.3076,4.8718,-1.282,-8.9744,12.564,1.282,11.0256,-1.7949,
-6.4104,-36.6667,18.7178,57.1792,-59.7437,-4.8718,6.4102,4.8718,-1.7949,-6.4104,13.5896,1.7949,13.5896,-6.4104,
-0.25647,-30.0001,18.205,59.2308,-55.1283,-1.2821,4.8717,5.8973,-3.3334,-5.3846,12.0511,0.25647,16.1537,-11.0258,
-0.25647,-32.0514,18.7179,53.0768,-50.5128,-0.25647,3.3334,4.359,-5.3846,-10.0001,8.4615,0.25647,12.5641,-10.5128,
-6.4102,-35.1282,18.7178,50,-51.0256,-2.3076,2.3076,3.8462,-9.4873,-12.0513,4.3589,8.4614,6.9231,-7.9487,
-8.4615,-34.1027,16.6669,49.4872,-51.5385,-3.8461,5.3846,3.8461,-7.9489,-9.4872,7.4359,6.923,10.5128,-7.4359,
-1.7949,-30,15.6409,54.6155,-45.8975,-3.8462,8.9744,6.4102,-5.3845,-7.9487,8.9744,1.7949,13.5896,-4.3589,
-1.7948,-33.077,12.5643,51.0258,-48.9742,-4.8717,3.8461,6.923,-11.0258,-12.0514,1.7948,1.7948,8.9742,-16.6666,
-4.6152,-37.9487,15.3848,45.6411,-52.3076,-3.0769,4.1025,7.6924,-11.7949,-16.4102,4.1025,3.0769,16.9233,-25.1282,
-3.3333,-34.6155,14.6155,48.9744,-43.3333,-2.3076,2.3076,3.8462,-14.1025,-18.718,6.9231,5.8975,22.3079,-10.1282,
-8.9742,-29.9999,9.9999,44.8719,-39.7435,-2.3077,-0.25647,0.25647,-17.1796,-16.1537,0.76916,13.5897,11.0258,4.8718,
-13.8461,-35.8973,9.2311,43.59,-46.1537,-1.5385,0.51282,1.0258,-16.923,-13.3331,-0.51282,12.3077,8.2052,3.077,
-10.2566,-37.436,12.3076,53.8462,-44.1025,1.0256,-1.0256,6.1538,-14.3591,-12.8206,4.1025,7.6921,21.0254,-5.6411,
-7.4359,-37.6923,14.6154,55.1281,-43.8461,0.76917,-0.76916,5.8973,-15.641,-17.1796,5.3846,6.923,19.2306,-7.4359,
-6.6666,-39.4872,16.923,54.8717,-50.2565,-1.5385,1.5385,5.1283,-17.9486,-23.5897,5.1283,5.1283,8.7179,-8.7179,
-6.6669,-35.8976,18.4613,56.9232,-51.2821,0.51282,-0.51282,9.2306,-12.8207,-21.5385,8.205,5.641,12.8204,-5.6412,
-5.1283,-33.3334,21.0255,55.8976,-50.7692,2.5641,-2.5641,8.7179,-6.6666,-16.4103,9.2308,5.1283,17.9486,-10.7692,
-5.3846,-35.1283,21.2819,57.1793,-50.0001,1.2821,-1.2821,5.3846,-4.359,-16.6666,8.4615,2.3077,11.5385,-16.1539,
-6.6666,-34.359,22.0511,56.41,-48.2052,1.5385,-1.5385,8.2052,-2.0514,-12.8204,11.2821,8.2052,13.3334,-3.5897,
-4.1027,-28.7181,19.4872,53.8461,-47.1796,1.5385,-2.5641,11.7948,-4.1027,-8.7181,10.7692,13.8461,17.9486,-1.5385,
0,-27.6921,13.8464,51.7952,-48.2051,0,-1.5383,7.6924,-8.7178,-13.3333,8.2051,8.2051,14.8718,-16.5385,
-1.0256,-28.718,17.4358,55.3845,-46.1538,1.0256,-4.1025,5.6411,-4.6152,-14.3589,11.7949,7.1794,14.8718,-16.4102,
-2.0513,-28.2053,21.0256,59.4871,-39.4873,0,-1.0256,9.2307,-1.0256,-12.3079,14.3589,15.3845,15.8972,-1.4102,
-2.3076,-32.5642,18.2051,56.6665,-37.6924,-5.8975,2.3076,8.4614,-5.3845,-12.0513,14.1025,14.6152,13.5898,-3.8462,
-2.3076,-29.4873,17.6924,57.6924,-38.718,-0.76929,0.76929,9.4871,-5.3845,-8.9744,16.1538,8.4614,17.1797,-8.4617,
-6.6665,-31.7949,13.8462,56.4102,-43.0769,0,0,5.1282,-4.6152,-19.4871,14.8721,1.0256,20,-11.7949,
-3.5898,-35.3848,17.4358,57.9485,-38.9744,-5.6411,6.1538,1.5383,0,-23.5898,16.4104,0,19.9998,-14.3591,
-5.641,-33.3334,15.3844,53.8463,-34.359,-8.2052,1.5385,2.0511,2.5641,-14.8719,14.8717,-1.5385,11.795,-14.8719,
-8.7179,-29.7435,13.8461,47.6923,-36.923,-5.1281,1.5385,5.1283,5.641,-10.2562,18.4618,-1.5385,13.8461,-10.7692,
-7.9486,-29.9999,10.5131,49.4872,-37.1796,-8.4615,3.3334,1.2821,1.2821,-16.6666,16.6669,-1.2821,14.6156,-17.6923,
-3.5897,-24.6154,8.2052,52.8204,-27.1796,-5.641,1.0255,-0.51282,0.51282,-7.6923,14.8717,8.2052,16.923,-12.3077,
-3.0769,-25.6411,11.282,48.718,-34.3591,-2.5642,1.0256,-1.0256,4.6152,-1.0256,17.9485,11.282,19.4871,-2.5642,
-3.8461,-28.9745,15.641,47.4359,-46.4103,-6.4103,3.8461,-1.7948,1.7948,-5.3846,18.7181,8.4615,16.6669,-11.0258,
-2.5641,-28.7179,16.9232,48.205,-39.4872,-9.7435,5.641,-1.0255,-0.51282,0.51282,19.4872,9.7435,18.9745,-18.4615,
-2.3076,-26.9231,12.564,51.5386,-31.0256,-8.4614,3.3333,0.25635,-2.8206,-0.25635,13.5898,7.4358,17.1797,-13.0769,
-1.7949,-20.7693,12.0513,51.5386,-33.0769,-4.8718,3.3333,1.7949,-6.4102,-10.5127,7.9487,9.4873,11.5386,-3.3333,
-1.5385,-19.9999,16.923,45.6412,-36.4103,-5.1281,3.5897,1.5385,-7.1793,-14.8717,12.3077,13.3336,10.2565,-2.0511,
-1.5385,-24.1024,17.4362,52.8204,-36.923,-3.5897,3.077,1.5385,-6.1537,-11.7948,15.8976,11.795,17.4362,-11.2821,
-5.3845,-24.3589,15.6409,59.2307,-36.1538,-3.3333,6.4102,3.3333,-3.8462,-8.4617,15.1282,7.9487,22.3079,-14.6155,
-11.5386,-23.3333,11.5383,52.5642,-32.5642,-8.9744,5.8975,1.7949,-1.7949,-12.0513,15.6409,5.3845,18.2053,-8.4614,
-9.9999,-23.3334,10.5131,46.41,-29.9999,-8.4615,1.2821,0.25647,-0.25647,-16.1539,14.6156,2.8204,18.205,-6.923,
-4.6152,-21.5383,17.949,48.2053,-33.8462,-3.5896,3.5898,0,0.51294,-12.8206,11.7952,0,15.3845,-13.8462,
-2.0513,-15.8975,20,55.3848,-27.6924,-2.0513,8.2051,0,0.51269,-9.7437,9.7434,0,10.2563,-9.7437,
-5.3846,-18.7179,11.0255,51.0258,-20.2565,-4.8717,4.359,-2.3077,0.76916,-13.077,11.5385,-0.76917,9.9999,0.76916,
-5.1281,-22.5641,10.7692,46.1539,-27.6923,-4.6154,1.5385,-0.51282,0.51282,-11.2819,14.8717,1.5385,6.6666,-2.0511,
-2.0513,-22.0513,11.7949,49.231,-35.3845,-2.0513,3.5898,2.0513,-2.0513,-2.0513,14.8721,9.7437,6.1538,-10.769,
-4.3589,-25.8975,7.4358,47.9487,-37.1794,-5.3845,3.3333,1.7949,-5.3845,-1.7949,11.5386,11.5386,10.5127,-11.5386,
-3.8461,-23.3334,11.5385,47.4359,-36.6666,-4.359,3.8461,2.8204,-3.3334,-2.8204,8.9742,10.5128,11.0255,-4.359,
-1.0256,-22.0513,12.8206,45.1282,-37.4358,-4.6152,4.6155,1.0256,-1.0256,-1.5383,7.6924,13.3333,6.1538,-7.6921,
-1.0256,-24.1025,10.2563,45.6411,-31.282,-6.6667,3.0769,1.0256,-6.6667,-4.6155,9.7437,13.8462,8.2051,-16.4104,
-2.564,-16.9231,11.7952,53.3333,-19.4871,-2.0513,2.0513,11.282,-8.7178,-7.6921,14.3591,11.282,13.3333,-13.8462,
-4.8717,-13.0768,8.9745,47.9486,-25.3846,-0.25647,0.25647,7.9486,-8.4615,-11.0255,11.5385,4.359,10.5131,-11.5385,
-2.0514,-10.2565,6.1537,45.641,-28.7179,-0.51282,1.0255,0.51282,-7.6923,-8.7179,10.2562,4.6156,13.8461,-11.2821,
-2.3077,-9.4872,8.9742,48.4615,-22.3077,-2.8204,2.8204,2.3077,-4.8717,-8.4615,14.6154,3.8461,19.2306,-16.6666,
-0.51282,-12.8204,9.7435,47.1796,-22.5641,-2.5641,3.077,4.1027,-4.1024,-12.3077,14.3593,0.51282,18.9745,-17.4359,
7.1797,-9.7437,7.1797,43.5898,-22.5642,-2.5642,0,0,-9.7437,-11.7949,9.7437,0,13.8462,-4.6155,
10.5129,-5.3845,13.0769,42.8206,-18.2051,-5.3845,1.282,-1.282,-6.9231,-6.9231,12.5642,1.282,12.5642,-5.8975,
5.1285,-9.7435,13.8463,44.1027,-22.5641,-8.7179,1.5385,1.5385,-1.5385,-6.1537,11.2823,-2.0511,10.2565,-16.923,
5.1281,-10.7692,8.7179,42.5641,-26.1539,-6.6666,1.5385,6.1539,-2.0514,-7.1796,8.2052,-1.5385,9.2306,-4.6154,
4.8717,-12.0511,8.4618,39.2308,-26.923,-8.4615,-0.25647,0.76917,-8.4615,-14.6154,6.9232,-0.25647,14.1024,0.25647,
3.5897,-9.7435,12.308,44.1024,-23.0768,-10.7692,2.0514,-1.5385,-9.2306,-12.8204,8.7181,1.5385,14.8719,-14.3588,
1.7949,-11.5383,14.6152,41.2822,-21.282,-17.1794,4.3589,-1.7949,-10,-10.5127,6.9233,3.8462,3.3335,-20.7693,
0.51282,-12.3075,11.2823,43.0773,-26.6666,-14.8717,-0.51282,1.026,-13.3331,-16.41,4.1027,1.5387,1.5387,-24.1024,
0.51282,-7.1793,6.6666,49.2311,-30.2562,0.1283,-4.1024,6.6666,-14.3588,-15.3844,5.6412,-0.51282,8.7179,-24.6154,
-1.0256,-6.1538,7.1794,42.5642,-33.3333,4.1028,-4.6152,3.0769,-16.4102,-10.769,3.5901,1.0256,4.6155,-9.6154,
-1.7949,-7.436,9.9998,43.3333,-33.5898,2.8206,-3.3335,-0.76929,-16.6667,-14.1025,2.8206,0.76929,4.8718,5.3846,
-0.25635,-4.8718,12.564,50,-30.5127,11.0259,0.25635,6.4102,-12.5642,-18.2051,8.4614,-1.282,9.4873,-3.3333,
-0.51282,-1.5385,9.2308,42.5643,-27.6923,13.8461,0.51282,7.6923,-15.8973,-18.9742,5.641,-3.5897,1.5385,-13.3331,
0.76929,-0.76929,7.4358,38.718,-26.9231,9.4871,1.282,2.8206,-20.2563,-15.6409,-1.282,-3.3333,2.3079,-8.4614,
-0.25635,-1.2822,7.9487,39.7437,-31.0259,7.4355,1.7949,1.7949,-18.718,-14.1028,0.25635,-4.8721,11.0254,-13.5898,
-3.5898,3.5898,3.0767,35.8975,-35.8975,6.1538,-0.5127,0.5127,-18.4617,-15.3848,2.0513,-5.1284,3.5898,-17.9487,
-0.25635,7.9487,1.7949,32.564,-35.6411,4.8716,2.3076,0.25635,-19.7437,-14.6155,1.7949,-1.2822,-1.2822,-2.9487,
0.5127,3.0767,4.1025,37.436,-32.8206,4.6152,1.5386,4.6152,-20.5129,-14.8718,-0.5127,-2.564,-2.0513,-1.0259,
1.7949,4.8716,7.436,42.3076,-26.4104,7.436,-4.3591,8.4614,-19.2307,-15.6411,2.8203,-1.7949,-1.7949,-14.6155,
1.0256,5.6409,7.6921,36.4104,-30.2563,3.5896,-4.6155,1.5383,-19.4871,-18.4614,2.0515,-1.5383,-1.0256,-15.3845,
-1.7949,1.7949,5.8975,40.769,-32.5642,1.7949,1.7949,1.2822,-23.3333,-20.7693,-1.7949,-1.2822,1.7949,-6.4102,
-5.1279,-2.564,0,38.4619,-32.8203,1.5386,0,1.5386,-25.6409,-21.0254,0,1.0259,2.0513,-9.7434,
-2.564,0,1.5386,32.3081,-32.3076,2.0513,-1.5381,0,-18.4614,-13.3333,1.5386,2.0513,1.5386,-16.4102,
-1.5381,2.0513,2.0513,36.4106,-27.6921,2.5645,0,0.51318,-14.8716,-8.7178,1.5386,-1.0254,0,-14.8716,
-2.0515,-1.5386,5.6409,41.5383,-27.1797,1.5383,-0.51294,2.051,-11.7949,-7.6924,10.2561,0.51294,6.1536,-4.6155,
2.8206,-1.282,12.564,44.8721,-30,-2.3076,-2.8206,1.282,-6.4102,-2.8206,13.5898,1.7949,13.5898,-2.8206,
0.76904,2.3076,4.8716,40.2563,-29.4873,-3.3335,-5.3848,1.2822,-10,-0.76904,8.4614,-0.76904,10,-7.9487,
-3.0771,6.1538,-2.564,37.9487,-26.6667,5.1279,-7.1797,5.1279,-15.3848,-4.1028,6.6665,2.564,6.1538,-6.1541,
-3.0769,10.2561,-3.0769,35.3845,-27.1797,10.2561,-11.2822,4.615,-18.9746,-10.7695,3.0769,3.5896,4.615,-13.8464,
-1.7949,12.564,-3.8462,30.5127,-22.8206,12.564,-10.0002,5.8975,-18.718,-7.436,1.7949,4.3589,3.8462,-14.1028,
-2.8206,5.3845,-4.8718,33.0769,-24.3589,6.4104,-11.0256,4.3591,-18.718,-4.8718,1.282,5.8972,-1.282,0.89722,
-2.3076,0.76904,-0.25635,38.7178,-28.4617,-0.25635,-10,3.8462,-12.0513,-2.8203,3.8462,11.0254,0.25635,11.0254,
-2.8203,-0.25635,-0.25635,37.1797,-28.9744,2.8203,-7.9487,5.8975,-10,-1.7949,5.3848,12.0513,4.3589,0.25635,
-3.3333,-3.8464,-2.8206,36.1536,-28.4617,8.9744,-8.9746,5.3845,-15.1284,-0.76929,2.8206,13.0769,1.282,0.76929,
-3.0771,-10.7693,2.0513,36.4102,-28.718,4.1025,-7.6924,-2.0513,-11.7949,-2.0513,3.5898,15.8975,5.1279,12.3076,
-0.76929,-5.8975,7.4358,42.3079,-22.3076,0.76929,-2.8206,-0.76929,-5.3845,-4.3589,11.5383,15.1282,14.6155,7.4358,
-1.7949,-3.3333,1.7949,42.3076,-21.282,1.7949,-4.8718,4.3589,-10.5127,-10.5127,6.9233,4.3589,2.8208,-7.5642,
1.5385,-1.5385,4.6156,44.6156,-23.5897,4.6156,-3.0768,7.1796,-10.2562,-10.7692,3.077,4.6156,-3.5897,-5.641,
-4.3589,-1.2817,1.7949,42.3076,-27.4358,1.2822,-8.9744,-0.25635,-16.1538,-13.5896,0.25635,6.4102,1.7949,4.8721,
-7.1794,1.5386,-1.0254,36.4102,-25.6409,1.0259,-11.282,0,-21.5383,-15.8975,0,2.0513,6.1538,6.6665,
-5.1282,3.0771,0.51318,40,-26.6665,2.5645,-7.1794,5.6411,-18.9741,-12.3076,0,-2.564,0,2.0513,
-7.9487,-0.76929,2.3076,44.3589,-30,3.8462,-4.3589,5.3848,-11.5383,-6.9231,6.9233,2.3076,0.76929,-1.7949,
-8.7178,-4.1025,5.1284,41.0259,-31.282,2.0513,-2.0513,4.6157,-7.1794,-5.1282,12.3076,3.5898,7.1797,-8.7178,
-1.5383,1.5383,3.0769,40.5129,-27.1794,4.6155,0.51294,5.6409,-7.1794,-6.1538,6.6667,-1.5383,-0.51294,-8.2051,
-0.76929,0.25659,0.25659,37.1794,-29.4873,4.3591,2.8206,0.25659,-7.436,-7.436,4.8718,-0.25659,-8.4617,-0.76929,
-3.077,-4.1027,6.6666,42.5641,-35.3846,-1.5385,3.59,1.5385,-2.0514,-2.0514,12.8204,7.6925,4.6154,-4.6154,
-3.077,-0.51282,5.1281,45.1281,-31.7948,-2.0514,0.51282,7.1793,-4.1027,-5.1283,9.2306,9.2306,12.8204,-8.7179,
-1.2822,11.5381,-2.3076,35.1279,-21.7949,12.9486,-0.25635,7.4355,-10.5129,-12.0515,5.3843,7.9487,0.25635,-0.25635,
-4.6157,16.9229,-4.1025,37.9487,-30.2566,26.6665,-4.1025,7.1792,-8.2051,-7.6924,8.2051,4.1025,-6.1538,5.1279,
