"AF3","AF4","F3","F4","F7","F8","FC5","FC6","O1","O2","P7","P8","T7","T8",
-9.4873,-8.4614,-1.7949,-13.0767,42.8203,26.9233,-8.4614,4.8721,-0.76904,0.76904,16.1538,3.3335,-2.8203,16.1538,
-8.4614,-7.436,-4.8716,-12.564,44.3589,26.9233,-12.564,6.9233,-0.76904,5.8975,17.1797,4.8716,0.76904,1.1538,
-4.3589,-9.4873,0.76904,-15.1279,49.4873,21.7949,-13.5898,4.8721,-2.3076,10,19.7437,15.6411,-0.76904,-3.8462,
-6.4104,-9.4871,-1.282,-23.8464,49.9998,20.2566,-14.1028,1.282,-7.949,4.3591,17.1794,12.5642,-10.0002,11.1538,
-7.436,-2.8203,-6.4102,-24.3589,44.3589,26.9233,-13.0767,6.4102,-2.3076,2.3076,20.2563,4.8716,-4.8716,18.7178,
-10,-3.3335,-5.8975,-23.3335,29.4873,26.9233,-17.6924,4.3589,0.25635,4.8716,19.7437,6.4102,-2.3076,3.7178,
-10.2563,-7.6924,-6.1538,-21.5386,36.4102,22.564,-18.4614,5.1284,-2.0513,4.6152,18.9741,9.231,-5.1284,2.0513,
-5.8972,-9.4871,-6.9231,-22.8206,51.4102,18.718,-8.9744,6.9231,1.282,-0.76929,19.2307,-2.8206,0.76929,11.0256,
-0.76929,-2.8206,-5.8972,-20.7693,66.4102,25.8977,-4.3586,0.76929,1.282,-3.3333,18.2053,-10.5129,4.8718,3.8464,
-1.0254,0,-4.6152,-19.4873,76.4102,30.2563,-3.0767,3.5898,0,1.0259,22.564,-3.5898,4.1025,-3.5898,
-2.3079,-3.8459,-1.7947,-23.3333,72.5642,18.718,-0.76929,8.4617,-0.25659,4.8718,21.282,-0.76929,4.8718,0.25659,
-7.436,-10,-7.9487,-27.436,65.3848,12.0513,-11.0254,2.3076,-7.436,4.3589,12.564,-2.3076,2.3076,8.4614,
-5.3845,-10.5125,-6.4099,-25.8972,65.3845,18.2053,-12.051,0.76929,-3.8459,4.3591,15.6414,-0.76929,1.282,13.5901,
-0.5127,-6.6665,-0.5127,-20.5127,76.4102,23.5898,-6.1538,8.2051,2.564,0,21.0259,-3.0767,0,5.6411,
-0.5127,-3.5898,-1.0254,-19.4873,78.4614,24.1025,-4.1025,10.769,7.1797,0.5127,25.1284,-2.0513,6.1538,-5.6411,
-4.3589,-7.436,-5.8975,-27.9487,64.3589,16.6665,-6.4102,0.76904,6.4102,1.7949,23.8462,-0.76904,8.9741,-5.8975,
-4.6155,-8.718,-6.6667,-28.2048,62.5642,16.4104,-12.3079,0.51294,-0.51294,0.51294,16.9231,-2.051,1.0256,9.1025,
1.2822,-8.4614,-0.25635,-22.3076,70,20.2563,-10,4.3589,-1.7949,0.25635,15.6411,-1.7949,-3.3335,15.6411,
1.2822,-6.9229,-1.2822,-21.7949,71.0259,19.231,-9.4873,1.7949,-3.3335,2.8208,17.1797,2.3076,-4.3589,0.64111,
-2.5642,-3.5896,-5.6409,-21.5383,71.7947,19.4871,-9.7434,3.5896,0.51294,7.1794,20.5129,2.051,-0.51294,-7.6921,
-1.2817,-6.9229,-1.2817,-23.8462,70,17.6924,-6.9229,-0.25635,8.9746,0.25635,19.7437,-12.949,4.8721,1.2822,
-2.0513,-8.2056,0,-21.0259,70.2563,17.4355,-8.2056,0,7.6919,-3.0771,20,-20.5132,6.6665,3.0767,
-6.4102,-4.8716,-2.3076,-16.1538,74.1025,18.7178,-4.3589,3.3335,7.9487,2.3076,26.4102,-11.5386,8.4614,-3.8462,
-4.6152,-2.564,-2.0513,-17.436,76.9233,19.4873,-2.564,3.0771,9.231,2.0513,25.1284,-9.7437,9.231,-8.7178,
-1.0256,-4.6155,-4.6155,-22.0515,78.4617,19.4871,-4.6155,4.1023,2.5642,-3.0769,16.4104,-16.4104,6.1536,1.0256,
-2.3076,-4.8716,-4.3589,-18.7178,78.2051,18.7178,-2.8203,3.3335,2.3076,-3.8462,17.1797,-14.1025,5.8975,6.9229,
-3.3333,-1.282,-2.3079,-14.1028,75.6409,18.718,-4.3591,0.76929,4.8718,2.8206,21.282,-0.76929,5.8972,-2.3079,
-2.0513,-5.6411,-4.1025,-18.9746,73.8462,13.8462,-9.231,-0.5127,1.0254,5.6411,17.436,0.5127,2.564,-0.5127,
-1.0256,-7.6921,-7.6921,-21.0256,77.949,12.8206,-9.2307,3.0769,-2.5642,3.0769,12.8206,-5.1282,1.0256,12.8206,
1.0256,-2.5637,-8.2048,-15.3845,78.9744,17.4363,-7.6921,5.6414,-1.0256,-1.0256,12.8206,-7.1794,2.0515,2.5642,
4.6152,-5.6411,0,-14.8721,78.9741,18.9741,-8.7183,5.1279,0,-2.0513,10.2563,-8.7183,0.5127,-8.2051,
1.0259,-10.2563,0,-18.9741,81.5386,17.9487,-16.4102,3.5898,-8.7178,0,1.0259,-10.2563,-7.6924,2.564,
1.2822,-4.3589,-1.7949,-19.231,87.9487,18.2051,-9.4873,4.3589,-2.8203,2.8203,6.4102,-8.4614,-1.2822,7.436,
1.7949,-2.8208,-3.3335,-23.8462,91.0254,11.0254,-1.7949,6.4102,4.3589,-2.8208,12.564,-8.9746,3.8462,-7.564,
1.5383,-1.5383,-4.1023,-21.0256,92.3079,13.8464,-3.5896,12.3079,4.1028,-2.051,13.3333,-7.1794,1.5383,-14.8718,
3.0769,-3.5896,-3.0769,-21.5383,88.718,14.3591,-4.1028,7.6921,5.1282,-3.0769,16.9231,-16.4104,3.5896,-7.6921,
7.1797,-1.5386,-3.0767,-26.1538,99.4873,12.3076,-4.1025,2.564,1.5386,-5.6411,15.3848,-22.0513,3.5898,-6.6665,
10.2563,0.5127,-0.5127,-24.6152,114.4873,17.9487,-5.1284,3.5898,-2.564,4.1025,10.2563,-9.231,-1.5386,-1.0259,
6.4104,-8.9744,-0.25659,-25.3845,115.1282,16.1536,-10.0002,0.25659,-3.8464,4.3591,5.8972,-4.3591,-7.4358,1.282,
3.8464,-8.4617,-5.3845,-24.8718,106.9231,15.6409,-12.051,2.8206,-2.8206,3.3333,6.9231,-5.8972,-3.8459,2.8206,
1.0256,-6.1541,-5.6409,-26.6667,103.0769,14.3591,-8.718,4.1023,-1.0256,6.1541,7.1794,-6.6667,2.051,-4.1028,
4.8721,-5.3843,-0.76904,-22.3076,104.8721,15.1284,-6.9229,5.8975,-0.25635,6.4106,8.4619,-1.2817,0.25635,-4.3589,
9.2305,-3.0771,-2.0513,-20,108.7178,16.9229,-3.5898,9.2305,0,0,10.769,-5.1284,1.0254,-0.51318,
7.6926,-2.5637,-2.5637,-27.1794,108.718,13.8464,-1.0256,8.718,1.0256,-6.1536,11.7952,-19.9998,6.6667,-4.1023,
8.2053,-6.1536,-2.5642,-26.6667,111.282,14.3591,-5.6409,10.2566,2.5642,-5.1282,11.7952,-17.9485,6.1541,-6.6667,
11.7949,-10.769,-2.0513,-24.1025,114.3589,13.8462,-6.6665,4.6152,3.5898,-1.5386,9.7437,-6.1538,1.5386,-7.6924,
13.3335,-4.6152,-0.5127,-22.564,116.4102,12.8203,-3.5898,0.5127,1.0254,5.1284,8.7178,-2.0513,-1.5386,-0.5127,
8.9746,-3.3335,-2.3076,-24.3589,118.2051,8.4614,-3.3335,1.2822,0.25635,2.8203,7.9487,-10.5127,-1.2822,-0.25635,
9.231,-6.6665,0,-26.1538,119.4873,5.1284,-0.5127,0,5.1284,-6.1538,12.8208,-16.9229,3.5898,-9.2305,
12.0513,-3.8462,-0.25635,-21.2822,123.8462,10.5127,0.25635,-1.2822,6.9229,-2.8203,23.3335,-10.5127,7.9487,-4.3589,
8.718,-5.6409,-2.051,-24.6155,124.6155,8.718,1.0256,-2.5642,8.718,-1.0256,26.6667,-15.8972,8.718,-2.051,
1.7949,-9.4873,-1.2822,-29.4873,120.2563,5.3848,1.2822,-3.3335,8.4614,-3.3335,18.7178,-23.8462,5.8975,-13.0771,
1.0254,-6.6665,-1.5386,-25.6411,110.769,7.1792,0,0,4.6152,0,15.8975,-16.4102,4.6152,-21.0259,
3.8462,-7.9487,-3.8462,-27.9487,102.3076,4.3589,-2.8203,4.3589,-0.76904,0.76904,18.2051,-5.3848,2.8203,-14.1025,
2.0513,-10.769,-7.1792,-33.333,108.2056,3.5898,-7.1792,5.6411,-3.5894,2.0513,15.8975,0,-1.5381,0,
0,-9.2305,-6.6665,-30.769,114.3594,6.1543,-6.1538,2.5645,1.0259,0,14.8721,-4.1025,-0.51269,0.51318,
6.1538,-5.6411,-2.564,-22.0513,115.3848,10.2563,-1.5386,4.6152,2.564,-7.1797,15.3848,-13.8462,1.5386,-6.1538,
11.7949,-3.5898,0,-20.5127,120.5127,10.769,4.6152,8.7178,-3.5898,-9.231,12.3076,-17.9487,0,-9.7437,
9.7434,-7.6921,1.5383,-25.6409,116.4104,6.6667,5.6409,0.51294,-4.6155,-9.2307,10.7693,-17.4358,-0.51294,-16.9231,
6.9229,-7.436,-0.76904,-23.3335,107.9487,9.4873,3.8462,0.25635,-0.25635,-5.3848,17.1797,-11.0254,2.3076,-11.5386,
3.0769,-9.2307,-3.5896,-25.1282,103.5896,8.718,7.1794,1.0256,-1.0256,-4.1028,19.4871,-6.6667,3.0769,-1.5383,
6.1538,-7.6924,-1.0259,-23.5898,106.6665,6.6665,10.769,-2.0513,-0.5127,-1.5386,18.4614,-5.6411,3.0767,0.5127,
10.5127,-3.333,-1.7949,-19.7437,111.5386,7.436,8.4614,-1.7949,1.7949,-5.3843,18.7183,-14.1025,3.8462,-5.3843,
7.9485,-9.4871,-2.3079,-25.8972,108.9744,2.3079,13.0769,-2.3079,4.8718,-14.1028,22.8206,-29.1025,6.9231,-12.0515,
5.8975,-8.9741,0.25635,-27.4358,105.8975,-0.25635,17.1797,-0.76904,5.3848,-8.4614,27.436,-31.5383,8.9746,-15.1279,
6.9229,-5.3848,-0.25635,-21.7949,105.8975,0.25635,13.5894,-0.76953,2.8203,-2.8208,27.9487,-25.8977,8.4614,-17.6924,
8.7178,-5.1279,0,-15.3848,109.231,-0.5127,16.4102,0,4.1025,-3.0767,28.7178,-19.4873,8.7178,-13.8462,
1.282,-6.4104,-2.3079,-14.6155,107.4358,-3.3333,15.1282,1.282,1.7947,-1.282,24.8718,-12.5642,4.3586,-12.0515,
0.25659,-6.4104,1.282,-18.718,108.4617,-2.8206,15.6409,-0.25659,4.8718,-0.25659,27.9485,-14.1028,8.4617,-20.2566,
4.6155,-2.5642,1.0256,-21.5386,112.3074,-1.0256,19.9998,-3.0769,6.1536,-4.1028,37.4358,-22.5642,13.8459,-17.4358,
5.8975,-2.8208,0.25635,-17.1797,104.8716,-0.25635,24.3589,-1.7949,7.436,-3.3335,39.7437,-16.6665,11.5386,-5.3848,
3.3333,-12.0515,0.25659,-15.1282,95.1282,-0.25659,20.7693,-0.76929,6.4104,-5.3845,32.5642,-11.0256,7.4358,-10.0002,
-1.7949,-15.1279,-5.8975,-20.769,94.1025,3.3335,14.6152,1.7949,2.8208,-12.0513,36.1538,-19.7437,6.4102,-5.3848,
-5.6409,-12.3079,-7.1794,-26.1538,84.6155,2.0515,17.9485,1.0256,8.2053,-10.2566,48.718,-24.1025,9.7434,-1.0256,
-7.6926,-12.8206,-0.51294,-20.5129,76.9231,0.51294,14.3586,1.0256,8.718,-2.0515,47.6921,-12.3079,9.7434,-16.0256,
-7.949,-17.6921,3.8459,-13.5896,86.9231,0.25659,7.4358,-0.25659,4.8718,-1.7947,45.8972,-7.4358,8.9744,-22.8206,
-2.8206,-16.6667,2.8206,-13.0769,82.8206,2.8206,13.5896,-3.8459,7.949,-6.4104,54.1028,-16.1536,12.5642,-7.9485,
-4.6157,-8.2051,0,-12.8208,69.2305,11.2817,16.9229,0,12.3076,-7.6924,54.8716,-22.5642,16.4102,-3.0771,
-11.7949,-5.6411,2.0513,-15.3843,68.7183,8.7183,14.8721,-2.0513,13.8462,-12.8203,51.2822,-30.769,19.4873,-11.7949,
-9.7434,-4.6155,4.6155,-14.8718,78.9744,7.6921,15.8972,-5.1282,13.8459,-13.3333,54.3591,-31.7949,19.4871,-13.8459,
-8.2051,-9.7437,-0.5127,-17.4358,78.9746,18.4614,15.8975,0.5127,11.7949,-6.6665,53.8462,-19.4871,15.3848,-17.4358,
-16.1541,-20.2566,-1.282,-22.3079,66.4099,17.1794,14.1023,1.282,7.9485,-10.0002,43.3333,-15.1282,7.9485,-23.3333,
-20,-16.4106,2.0513,-16.9233,66.1538,10.2563,13.8457,-2.0513,3.0767,-12.8208,40.5127,-21.5386,6.6665,-20,
-18.2053,-13.5896,3.3333,-14.1028,67.9485,6.9231,17.6921,-3.3333,7.4358,-8.4617,48.4617,-24.8718,15.6409,-20.2566,
-22.8206,-14.1025,2.3076,-19.231,61.2817,6.4102,14.6152,-2.3076,13.0767,-6.9233,47.436,-25.3848,17.6924,-24.3591,
-29.4873,-11.5386,2.3076,-23.8462,57.1792,8.9741,12.564,-2.3076,13.5898,-3.3335,44.3589,-24.3591,17.1792,-21.7949,
-27.9487,-17.1794,3.3333,-28.4614,58.718,6.4104,17.1794,-5.3845,13.5896,-3.3333,44.8718,-21.282,20.2566,-17.1794,
-22.5642,-17.436,1.5386,-25.6411,63.0767,4.1025,14.8716,-1.5386,9.7437,-6.6665,41.5386,-18.4617,15.8975,-13.3335,
-22.3079,-14.1025,1.7949,-23.3335,59.2305,6.4102,13.5898,-1.7949,11.0254,-6.4102,40.769,-21.7949,14.1025,-20.7693,
-24.1025,-15.3845,3.0769,-24.6152,57.949,9.7439,12.8206,-3.0769,12.8206,-7.1794,41.0256,-15.3845,15.3845,-24.6152,
-24.8721,-16.1538,-0.25635,-23.3335,56.1538,4.3589,10,0.25635,5.8975,-9.4873,35.6406,-6.4106,11.0254,-20.2563,
-23.5898,-15.8975,3.5898,-21.0254,52.3076,-0.5127,13.3335,0.5127,5.6411,-8.7178,35.3848,-15.8975,10.2563,-21.0254,
-24.6155,-16.4102,3.5898,-23.0771,63.5898,6.6665,11.7949,-3.5898,12.3076,-12.3076,38.9741,-30.2566,13.8462,-18.4617,
-20.5127,-13.3333,2.5642,-25.1282,78.5898,16.4104,19.4871,-2.5642,27.3076,-9.2307,47.6921,-25.1282,22.5642,-6.6667,
-22.3079,-16.1541,0.76929,-30,68.4617,4.8718,18.2048,-0.76929,25.3845,-7.949,43.8459,-22.8206,20.2561,-18.2053,
-20.7693,-14.6152,3.3335,-19.231,53.4617,-3.3335,11.5386,7.9487,14.6152,-8.4614,36.6665,-22.3079,15.1279,-29.4873,
-20.769,-16.6665,3.3335,-17.6924,50.5127,-1.7949,7.9487,1.7949,14.6152,-12.0513,30.5127,-22.3076,10.5127,-23.3335,
-20,-15.3848,1.5386,-22.5642,65.5127,8.7178,7.1792,-4.1025,19.4873,-1.5386,34.3589,-12.3076,13.333,-9.231,
-18.2051,-15.1282,0.76904,-23.8462,72.0513,11.5386,11.5386,-1.7949,24.3589,-0.76904,40.769,-12.0513,20.769,-10.5127,
-17.4358,-16.9231,2.564,-23.0769,62.0513,1.5386,16.9233,-1.5386,26.667,-11.2817,36.9233,-22.564,18.9746,-21.0256,
-20.5127,-13.8462,4.6155,-20.5127,61.0256,-1.0256,16.9231,1.0256,28.2053,-4.6155,37.4358,-17.9487,21.0256,-25.1282,
-25.6409,-15.8972,3.5898,-22.051,57.436,-2.0513,11.7949,2.0513,28.7183,-3.5894,42.5645,-12.8203,26.1538,-27.1792,
-26.4102,-14.1025,3.8462,-19.7434,54.1025,-1.7949,8.4614,1.7949,27.436,-7.9487,39.231,-12.0513,22.8208,-22.3076,
-24.3589,-11.0256,7.949,-15.6409,57.1794,-0.76929,11.5388,0.76929,28.9744,-4.8718,35.1282,-16.1538,22.3079,-16.1538,
-20.2563,-13.0769,11.5388,-15.1282,57.6926,-1.282,13.0769,1.282,27.949,-3.8459,36.6667,-20.2563,24.3591,-18.2051,
-19.4871,-13.8462,4.6155,-16.4102,60.5129,-1.0256,10.2566,1.0256,25.1282,-5.6409,37.949,-12.8206,21.0256,-20.5127,
-17.9487,-10.2566,8.2051,-16.4104,63.5898,-1.5386,17.436,1.5386,32.8203,-4.1025,42.564,-4.1025,24.6152,-11.7949,
-25.3845,-13.0767,11.0259,-16.1538,53.0771,-2.3076,12.0513,2.3076,26.4106,-4.3589,37.1797,-4.3589,19.231,-3.333,
-25.6411,-17.436,5.1279,-16.4102,44.6152,0.5127,-1.5386,4.1025,18.4614,-0.5127,31.2817,-2.0513,10.769,-7.1797,
-14.8721,-16.4102,3.0767,-17.436,44.1025,-2.0513,-5.6411,-1.5386,20,2.0513,31.7949,1.5386,7.1792,-22.1797,
-12.0513,-10.5127,3.8462,-15.1284,56.1538,0.25635,-0.25635,-0.25635,20.2563,2.3076,35.1279,-0.76904,8.4614,-16.6665,
-21.5386,-17.9487,2.0513,-22.564,65.6411,-1.5386,4.6152,-0.5127,18.4614,-3.0771,33.8462,-15.769,10.2563,-1.6665,
-18.718,-16.1541,8.9744,-17.6921,64.3591,0.25659,7.4358,-0.25659,25.3845,-0.25659,38.2048,-16.6667,14.1023,-1.282,
-17.1797,-13.0771,6.4102,-9.4873,49.3591,-0.76953,0.25635,-0.25635,22.8203,0.25635,39.2305,-14.6157,10.5127,-16.282,
-20.0002,-15.385,4.1023,-11.7952,47.1794,-2.5642,1.0256,1.5383,18.9744,-1.0256,36.9231,-27.6926,9.2307,-15.385,
-19.7437,-14.6152,4.3589,-17.6924,56.1538,-0.25635,0.25635,2.8203,19.7437,-3.8462,34.6152,-29.4873,8.4614,-7.436,
-19.2307,-14.6155,4.8718,-16.1541,46.4104,1.282,-0.76929,0.76929,21.282,-6.4104,36.1536,-14.4873,9.4871,-17.1794,
-20.7693,-15.6409,4.3591,-11.5383,35.1282,0.25659,0.25659,-0.25659,19.2307,-3.3333,35.6409,-11.5383,11.5383,-22.8206,
-21.5386,-15.8975,5.1279,-14.3589,37.9487,-2.0513,0.5127,1.0254,15.8975,-0.5127,31.2817,-17.436,9.7437,-7.8206,
-19.4873,-17.436,8.2051,-17.9487,36.9229,-4.1025,-2.5645,0,15.3843,0,32.3076,-11.7949,5.1279,7.1794,
-18.9744,-15.8972,2.5642,-20.5129,29.2307,-0.51294,-5.6409,-3.0769,12.3079,4.1028,35.8977,-7.6921,1.0256,0.51294,
-18.718,-15.6409,0.25659,-20.2566,22.8206,-0.25659,0.25659,-5.3845,14.6155,1.7947,40.2566,-21.282,4.8718,-12.0515,
-15.6409,-13.5896,6.9231,-8.9744,25.3845,-0.76929,1.7947,0.76929,19.2307,-5.3845,45.8972,-33.0769,11.0256,-6.9231,
-17.1797,-11.0259,8.4614,-0.76904,26.9229,0.76904,-5.8975,3.3335,17.6924,-5.3848,46.4102,-25.3848,10.5127,-8.4614,
-15.1282,-10.5129,12.051,-2.8206,38.2053,0.25659,0.25659,-0.25659,21.282,-1.282,47.4358,-16.6667,12.051,-16.6667,
-9.7439,-7.6926,12.3074,-1.5383,53.2053,-2.5642,6.1536,1.5383,17.4358,-5.1282,44.1023,-23.5896,10.7693,-10.7693,
-4.8718,-7.4363,11.0256,-0.76929,68.2053,-7.4363,5.3845,0.76929,11.5383,-12.5642,42.3074,-32.0515,9.9998,-8.9744,
0,-3.5898,16.4102,-3.0771,78.4614,-9.7437,10.769,0,18.4614,-8.7178,50.2563,-24.6155,14.8716,-9.7437,
-2.8206,-2.8206,15.6409,-6.4104,79.2307,-11.5383,13.0769,2.8206,23.3333,-4.8718,55.6409,-30,17.1794,-8.4617,
-1.7949,-4.8721,18.7178,-5.3848,76.6665,-14.6155,15.6411,1.7949,29.4873,-10,59.2305,-45,21.7949,-13.5898,
-1.0254,-1.0254,17.9487,0,72.3076,-15.3843,12.8208,0,24.6157,-12.8203,55.8975,-48.7178,17.436,-11.2817,
-3.3333,-1.282,11.0256,-0.25659,70.5129,-15.6409,9.9998,0.25659,19.2307,-5.8977,52.5642,-33.7178,12.051,-2.8206,
-4.8718,-6.4104,7.9485,-6.9231,65.3845,-14.6155,8.4612,-0.76929,21.7947,0.76929,49.4871,-18.7178,12.5637,-14.6155,
-11.2822,-7.1797,2.564,-14.3594,52.8203,-12.8208,2.0513,-2.0513,19.4868,2.564,39.4868,-9.7437,9.2305,-24.1028,
-15.6409,-5.8977,2.8206,-13.0769,51.0256,-16.1541,2.3079,-2.3079,18.2053,5.8972,39.7434,-3.3333,8.4617,-9.1028,
-17.6921,-7.949,2.8206,-13.0769,59.2307,-19.2307,0.76929,-2.8206,16.1541,2.3079,41.7947,-12.5642,4.3591,-0.76929,
-14.8721,-5.1284,3.5898,-15.3848,61.0254,-12.3076,5.6411,0,20,0,45.1279,-25.1284,8.7178,-8.7183,
-13.5894,-4.3589,5.8975,-16.1538,55.1284,-12.564,10.5132,0.25635,24.8721,-0.25635,50,-28.4614,15.6411,-20.2563,
-11.7947,-1.5383,9.7439,-9.7434,61.0256,-13.3333,11.7952,1.0256,30.7693,-1.0256,56.4104,-32.8203,21.0256,-23.0767,
-10.2563,-1.5383,13.8464,-10.7693,58.4617,-18.4614,15.3845,1.5383,37.949,-5.6409,57.949,-47.8203,26.6667,-22.564,
-13.0769,-1.7949,11.5386,-13.0769,46.9233,-24.8716,11.0259,1.7949,34.1025,-5.8975,55.1284,-57.6921,24.8721,-26.4102,
-13.5898,-1.7949,7.9487,-6.4102,45.8975,-23.8462,4.3589,-0.25635,31.0259,0.25635,55.1284,-42.6921,20.769,-35.1282,
-12.0513,-4.3589,11.0259,-4.3589,45.3848,-21.7949,4.8716,-3.8462,33.5898,3.8462,54.6152,-27.6921,20.2563,-34.6155,
-15.6409,-5.3845,10.0002,-9.4871,44.8718,-19.2307,1.282,-1.282,25.8977,8.4617,50.0002,-12.6921,16.6667,-19.7437,
-16.6665,-6.4102,7.436,-12.564,48.9741,-19.7437,-1.2822,1.2822,19.7437,7.9487,42.8203,-5.8975,10.5127,-4.8721,
-13.5898,-5.3843,5.8975,-7.436,50,-22.8203,-3.333,0.25635,16.1538,0.25635,32.564,-11.0254,5.3848,-0.25635,
-10.5127,-2.8203,11.0254,-1.7949,52.564,-18.7178,-0.25635,0.25635,16.1538,0.25635,34.1025,-11.5386,7.436,-11.0259,
-8.9744,-4.3591,14.6155,-7.4358,53.5896,-18.2053,4.8718,-1.7947,18.718,1.7947,38.718,-15.6409,11.5383,-19.7434,
-4.8718,-2.3079,10.5129,-8.4617,53.0769,-23.8462,3.8464,1.282,18.2053,-1.282,38.718,-26.4102,11.0256,-14.1023,
-2.0513,-2.0513,13.3335,-2.564,51.7949,-25.1282,7.6924,2.0513,21.5386,-3.0767,42.5645,-32.3076,13.3335,-20.5127,
-4.3591,-0.76929,17.6921,-3.8464,54.1023,-20.2566,8.9744,-0.76929,19.7434,0.76929,42.8206,-22.3079,14.6155,-24.8718,
-11.2822,-1.5386,10.2563,-10.2563,51.2817,-25.1284,1.5386,-2.0513,12.8203,6.6665,36.4102,-12.3076,10.769,-14.8721,
-17.6921,-7.949,5.8972,-11.5383,40.2566,-32.5642,1.7947,-1.7947,14.6155,2.3079,36.1541,-19.7434,8.4617,-20.2566,
-19.7439,-5.385,4.3586,-10.5129,36.1536,-27.949,3.8459,1.282,16.6667,-1.282,37.6921,-26.4104,7.9485,-31.0259,
-14.1028,-2.8206,6.4104,-13.0769,38.718,-26.9231,1.7947,-0.76929,18.2053,0.76929,37.1794,-25.3848,12.051,-23.8462,
-6.6667,-3.0769,12.3079,-9.7434,40.5129,-27.6924,2.5642,-2.5642,18.4617,3.5896,37.949,-26.1538,11.7947,-20.5129,
-6.9233,-1.2822,9.4873,-5.8975,35.6411,-25.3848,4.8716,-0.76904,16.1538,0.76904,38.7178,-22.3076,9.4873,-24.3591,
-5.8975,-0.76904,5.8975,-11.5386,37.1792,-26.9231,5.8975,0.25635,20.2563,-0.25635,43.3335,-18.2051,15.1279,-15.6411,
-6.4102,-2.3076,5.3848,-16.6665,36.6665,-28.9744,1.2822,-0.25635,18.7178,0.25635,39.7437,-21.7949,15.6411,-7.436,
-8.2051,-1.5386,10.2563,-13.8462,27.1797,-25.6409,6.667,0,17.436,0,36.4102,-20.5127,17.436,-14.3589,
-6.6667,2.5642,11.282,-15.3845,29.2307,-23.0769,10.2566,-2.5642,17.949,-4.1023,40.0002,-24.6152,21.0256,-26.6665,
-3.3333,4.3591,5.3845,-20.7693,44.2307,-22.8206,3.3333,-3.8459,15.1282,-7.9485,39.7434,-35.6411,18.2053,-27.9487,
-0.51294,0.51294,8.2053,-23.0769,43.0769,-23.0769,4.1028,-0.51294,16.4104,-5.1282,36.4104,-32.3076,16.4104,-22.0513,
-6.9229,-0.76904,8.9746,-21.282,28.0769,-21.282,-0.25635,3.3335,15.6411,0.25635,32.564,-18.718,16.1538,-16.1538,
-17.1794,0.25635,8.4619,-20.2563,21.2822,-21.282,-2.3076,3.8462,17.6924,-0.25635,33.5898,-19.2307,17.6924,-13.5894,
-13.8459,-1.5383,10.2566,-21.5386,26.6667,-23.5898,5.6409,1.5383,19.4871,-1.5383,37.4358,-23.0769,19.4871,-16.9231,
-7.9487,-0.25635,7.436,-19.231,34.6152,-24.8718,5.8975,0.25635,16.1538,-2.3076,35.6411,-22.3079,16.6665,-22.8206,
-8.9744,0.76929,12.051,-15.1282,40.2561,-26.4104,5.3845,-0.76929,19.2307,-6.9231,35.1282,-32.0515,16.1536,-25.8977,
-7.9487,0.25635,15.6411,-15.1279,37.6924,-27.4358,5.3848,-0.25635,16.1538,-12.0513,32.564,-37.6921,13.5898,-22.8206,
-4.1023,-1.0256,10.2566,-22.0513,31.7952,-26.6665,1.0256,1.0256,11.7952,-9.2307,31.7952,-30.769,13.8464,-21.0256,
-5.3848,0.25635,11.0259,-21.7949,22.8208,-22.8206,1.7949,-0.25635,16.1538,-4.8716,34.1025,-23.3333,18.7178,-20.7693,
-4.6152,2.0513,14.8721,-15.8975,8.7183,-21.0256,3.0771,-2.0513,14.8721,-5.6411,33.8462,-23.0769,16.4102,-23.0769,
1.7949,-1.7949,14.1025,-21.282,2.3081,-29.4871,1.7949,-4.3589,13.0771,-10,31.5386,-27.9485,13.5898,-27.4358,
2.3076,-0.25635,9.4873,-25.8975,17.3081,-24.3591,-1.2822,0.25635,14.6152,-7.436,32.564,-24.3591,13.5898,-18.7178,
-3.3333,0.25659,6.4104,-22.3076,28.9744,-9.3591,-0.25659,8.9744,17.1794,-0.76929,38.2053,-20.2563,18.718,-4.3591,
-6.1538,-2.0513,8.2051,-21.5386,13.9744,-8.7178,2.0513,8.2051,16.4102,-2.564,36.4102,-25.1282,17.9487,-6.1538,
-7.6924,2.564,7.1797,-23.0769,4.6152,-11.7949,-2.564,3.5898,14.3589,-3.5898,34.3589,-21.5386,12.3076,-11.2822,
-13.3333,-0.51294,5.1282,-25.1282,13.8459,-5.6409,-3.0769,0.51294,19.4871,0.51294,41.5383,-13.8459,18.4617,-9.7434,
-15.3845,-1.0256,6.6667,-22.0513,-1.1541,-4.6155,1.0256,2.5642,24.1028,9.2307,44.1028,-14.8718,22.5642,-6.1536,
-14.8718,3.0767,9.231,-21.5386,-16.1541,-12.3076,1.5386,-1.5386,20,9.231,41.5386,-22.0513,17.9487,-13.8462,
-12.3074,5.6414,13.3337,-18.9741,-4.1023,-7.1794,4.1028,-3.0769,22.0515,3.0769,46.6667,-22.564,23.0769,-15.8972,
-20.2563,0.76904,5.3848,-21.282,5.8975,-0.25635,0.25635,-1.7949,21.7949,-0.25635,39.7437,-18.2051,20.769,-7.436,
-23.8459,-0.25635,6.4106,-21.7947,-9.1025,-6.4102,0.25635,2.3076,24.3594,0.76953,32.0513,-11.5381,15.1284,-1.2817,
-15.1282,6.9231,17.1794,-15.1282,-13.5896,-10.0002,-1.282,9.4871,22.3074,1.282,34.1023,-5.3845,15.1282,-6.4104,
-15.8975,4.1025,9.7437,-18.9744,1.4104,-1.5386,-5.1284,7.6924,14.8716,-4.1025,31.7949,-11.7949,16.4102,-14.8716,
-19.231,-2.3076,3.8462,-23.3335,6.9229,2.3076,-1.2822,1.2822,16.6665,-4.3589,25.8975,-20.769,15.1279,-17.6924,
-18.9746,0,8.7178,-16.9233,2.0513,-2.5645,-3.0771,2.564,17.4355,0,22.564,-20,11.7949,-11.2822,
-18.718,1.2822,12.564,-12.564,-1.2822,0.76904,-0.76904,6.4102,19.231,-1.7949,26.4102,-20.2563,15.6411,-6.4102,
-15.3845,-1.5383,9.2307,-17.436,-7.1794,5.6409,1.5383,6.1541,18.9744,-7.6921,28.718,-25.6411,17.4358,-15.8972,
-13.8462,3.0769,5.6409,-18.9744,-16.4102,1.5383,-1.5383,8.718,21.0256,-1.5383,29.7439,-22.564,18.9744,-16.9231,
-16.6667,3.3333,5.8972,-19.231,-23.8462,-4.8718,-3.3333,5.3845,24.8718,3.8459,32.5642,-17.6924,20.7693,-7.949,
-13.5898,2.8203,7.436,-16.1538,-19.2307,-0.76904,-2.8203,5.8975,20.2563,0.76904,32.564,-16.1538,19.231,-1.7949,
-11.0256,2.3079,8.9744,-14.1023,-24.8718,-1.7947,1.7947,8.9744,18.2053,-3.3333,30.5129,-21.7949,18.718,-7.4358,
-14.1025,0.76904,8.9746,-14.6152,-37.1794,-3.3335,1.2822,8.9746,19.7437,-0.76904,31.5386,-19.2307,17.6924,-13.0767,
-20.5127,0,1.0259,-17.4355,-37.4358,0,-9.7437,7.1797,13.8462,0,30.2563,-15.3843,13.8462,-8.7178,
-15.1282,3.3335,2.3076,-17.6924,-26.4102,0.25635,-4.3589,4.3589,17.6924,-3.3335,33.5898,-19.7437,19.7437,-0.25635,
-11.7949,7.6921,7.1794,-12.3076,-25.6409,-1.5383,1.5383,1.5383,20.5129,-4.6155,37.949,-26.1538,24.1028,-1.5383,
-15.6409,2.3079,8.9744,-12.5637,-33.5896,-3.8459,-1.282,3.3333,19.7439,1.282,39.2307,-18.7178,20.7693,-14.6152,
-17.4358,1.0256,9.2312,-14.3586,-39.4871,-6.6663,-1.0256,7.6926,20.0002,8.2053,32.8206,-6.1536,15.385,-16.9229,
-21.2822,0.76929,0.76929,-10.5129,-39.7437,-4.3591,-8.4617,5.3845,13.5896,2.8206,24.3591,-6.4104,9.4871,-1.9229,
-18.4617,-6.1541,0.51294,-11.282,-39.4871,1.0256,-11.282,2.0515,14.8718,-0.51294,30.2566,-5.6409,12.3079,8.718,
-17.1794,-6.9231,4.8718,-15.1282,-48.4614,0.76929,-7.9485,5.8977,17.6926,1.7952,33.0769,-3.3333,16.6667,-0.76929,
-18.4614,0.51294,7.1794,-11.282,-45.6409,-0.51294,-2.051,14.3591,23.0769,1.0256,35.3845,-10.2563,25.1282,-1.0256,
-16.1541,0.25635,6.4102,-14.1028,-30.6409,-0.25635,-5.3848,12.0513,22.8203,-5.3848,35.1279,-18.718,24.3589,2.8203,
-9.231,0,5.1279,-13.8462,-19.4873,2.564,-7.1797,9.7437,22.564,0,34.3589,-13.8462,18.9741,-3.0771,
-10.5129,-0.76904,3.8462,-11.5386,-31.0256,0.25635,-0.25635,5.3848,29.4873,7.9487,36.6665,-13.5898,24.3589,-12.0513,
-15.8975,0,1.0259,-12.8206,-34.8718,0,-3.0767,4.6152,26.1538,11.2822,32.8208,-9.2305,24.1025,-5.1279,
-17.6924,-1.2822,0.25635,-15.1279,-30,-0.25635,-10.5127,7.9487,15.6411,7.436,23.3335,-1.2822,15.1284,2.3076,
-16.1541,1.7949,5.8975,-15.1284,-34.6155,-0.25635,-7.9487,11.5386,17.6924,-4.8721,24.8716,-11.5386,21.7949,0.25635,
-16.4104,3.5896,3.0769,-18.4617,-41.5386,4.6155,-9.231,8.718,15.8972,-15.3848,28.2048,-26.5386,23.5896,-3.0769,
-12.564,1.7949,3.333,-17.1797,-44.3591,9.4873,-10.5127,5.8975,13.5898,-15.6411,28.9741,-26.4104,15.6411,-1.7949,
-15.3848,-2.0513,2.0513,-15.3848,-46.667,4.1025,-16.9233,4.6152,9.7432,-9.7437,22.0513,-15.3848,7.1792,2.0513,
-20.7693,-3.3337,-0.76929,-15.6414,-52.0515,0.76929,-15.6414,2.8206,9.9998,1.7947,18.718,-7.4363,8.4612,4.8718,
-16.9229,-3.5898,2.5645,-15.3843,-59.9998,2.5645,-9.7437,2.0513,15.3848,6.667,23.5898,-9.2305,11.7949,-2.0513,
-10.5127,-1.2822,1.2822,-12.0513,-48.4614,5.3848,-14.6152,5.8975,15.1284,5.8975,27.9487,-4.3589,10.5127,-2.8203,
-11.7952,-6.1541,-4.1028,-16.9231,-36.4104,0.51294,-16.9231,0.51294,8.718,3.0769,22.5642,-0.51294,7.6921,3.0769,
-7.6924,-5.1284,-1.0254,-16.4102,-40,1.5386,-9.7437,0,7.6924,4.1025,18.4614,0,11.2822,9.7437,
-5.6411,-2.0513,0.5127,-13.3335,-46.1538,7.6924,-13.8462,3.0771,7.6924,-0.5127,20,-2.0513,10.769,6.1538,
-2.0513,-2.5645,6.6665,-7.1797,-45.1284,7.6919,-16.9233,2.0513,6.6665,-5.6411,19.4868,-3.5898,6.6665,3.5894,
-0.25635,-3.333,6.9233,-3.333,-47.9485,8.4614,-16.1538,1.7949,0.25635,-4.8716,13.0771,-8.4614,1.7949,3.3335,
-0.25635,-2.3076,3.8462,-8.4619,-42.3079,10,-10.5132,5.3843,5.3843,-0.76953,17.6924,-6.4106,8.9741,0.25635,
-1.282,-0.76929,3.8459,-13.0769,-27.9487,3.3333,-10.0002,2.8206,9.4871,0.25659,21.7947,-3.3333,11.5383,-0.25659,
-5.3845,-2.3079,1.7947,-13.0769,-32.0515,3.8459,-17.1794,1.7947,3.3333,-1.282,17.6921,-6.4104,3.3333,1.282,
-2.564,-5.1279,1.0259,-14.3589,-43.0769,9.7437,-18.9741,2.564,4.6152,0,18.4614,4.1025,0,-1.5386,
-2.0513,-1.5386,-1.0259,-13.8462,-40,7.6924,-17.436,3.0767,5.6411,0.5127,20.5127,15.8975,3.5898,-0.51269,
-12.3076,-2.564,-1.0259,-14.8716,-44.6155,2.564,-13.3335,5.1284,9.7437,-2.564,20.5127,1.0259,12.3076,4.6152,
-17.436,-6.6665,2.0513,-20,-59.4873,5.6411,-16.4102,6.6665,11.7949,-2.0513,20.5127,-9.231,13.3335,8.2051,
-15.1282,-6.4104,-4.8718,-21.7947,-61.282,4.8718,-23.3333,2.8206,4.3591,0.76929,15.6409,-0.76929,6.4104,1.7952,
-6.4102,-0.25635,0.25635,-13.0767,-47.9487,3.8462,-9.4873,4.3589,11.0259,2.8208,21.2822,-2.3076,14.1025,-5.8975,
-7.436,-1.7949,4.3589,-9.4873,-42.3076,2.3076,-6.9229,7.436,13.5898,1.7949,22.8208,-11.5386,14.1025,-6.9229,
-6.4104,-6.4104,3.8459,-11.5383,-43.8462,-0.76929,-11.5383,6.9231,13.0769,4.8718,23.3333,-0.76929,9.9998,0.76929,
-5.6414,-9.2312,6.1536,-15.8977,-46.1541,-2.0515,-12.8206,2.051,9.2307,1.0256,24.1023,4.1023,6.6663,-1.0256,
-7.4363,-6.4104,8.4612,-11.0256,-41.7949,0.76929,-14.6155,3.8459,4.8718,-0.76929,23.3333,0.76929,3.3333,-3.8464,
-2.3079,-2.3079,7.4358,-7.949,-33.0769,-3.8459,-13.5896,3.3333,11.0256,1.7947,20.7693,3.8459,5.3845,-1.7947,
1.2822,-3.333,3.8462,-11.0254,-31.0256,-7.4355,-16.1538,0.25635,9.4873,-0.25635,15.1284,5.3848,3.3335,-2.3076,
1.5383,-5.1282,7.6921,-9.2307,-39.4873,-3.5896,-15.3845,4.6155,5.6409,-1.5383,16.9231,2.5642,3.5896,-2.5642,
1.282,-0.76929,11.5383,-6.4099,-45.8972,-3.3333,-15.1282,8.4617,7.4358,-1.7947,18.2053,0.76929,5.3845,-2.8206,
0.5127,1.5386,4.1025,-7.6924,-40.5129,-5.6411,-21.0259,7.6924,4.1025,-4.1025,12.8203,-1.0259,0.5127,-0.5127,
8.718,-1.0256,5.1282,-8.2053,-33.3333,-4.1023,-13.8459,6.6667,5.6409,-0.51294,18.9744,-0.51294,3.0769,0.51294,
8.7178,0.5127,5.1284,-7.1792,-35.8975,-5.1279,-13.3335,3.5898,4.1025,-0.5127,18.9746,-1.5386,4.1025,-7.1792,
3.0769,4.1023,2.5642,-9.2307,-37.9487,-6.1541,-15.3845,4.6155,3.5896,-3.5896,12.8206,-1.5383,1.5383,-2.5642,
5.6409,-1.0256,5.1282,-12.3079,-38.9746,-7.1794,-11.7952,6.1536,1.0256,-2.5642,11.7947,2.051,-1.0256,6.1536,
9.2307,-1.5383,5.1282,-7.6921,-33.8462,-4.6155,-12.3079,6.6667,-0.51294,5.1282,12.8206,12.8206,-2.5642,0.51294,
2.8206,-1.282,1.282,-11.5383,-32.5637,-6.4099,-13.5896,3.3333,5.8977,1.7952,9.4875,7.4363,-4.3586,-12.051,
3.8462,2.8203,4.3589,-12.0513,-31.5386,-4.8716,-12.564,10.5127,8.9741,-1.2822,7.436,1.2822,-3.3335,-4.3589,
3.3333,0.76929,3.3333,-10.5129,-35.1282,-5.8972,-19.7434,9.4871,-0.76929,-3.3333,1.282,4.8718,-5.8972,1.282,
4.6155,-0.51294,7.6921,-7.6921,-33.8462,-4.6155,-17.4358,9.7439,4.1028,0.51294,1.0256,16.4104,-1.0256,-1.0256,
1.7947,1.7947,4.3591,-16.6667,-30,-4.8718,-17.6921,11.5383,5.8972,-1.282,-0.76929,8.4617,0.76929,-4.8718,
0.76929,3.3333,4.3591,-21.7947,-30.5127,-7.4358,-15.6409,10.5129,6.4104,-1.7947,2.8206,-0.76929,5.8977,-3.8459,
-0.51269,-0.51269,4.1025,-21.0254,-40.5127,-11.2817,-21.0254,7.1797,4.1025,3.0771,0,14.2307,0,1.0259,
1.7952,-1.7947,0.76929,-21.7947,-43.8459,-3.8459,-26.9231,6.9231,3.8464,10.5129,-0.76929,29.2307,-6.9231,4.3591,
4.6157,-5.6411,-0.51269,-25.6411,-43.0769,-1.0254,-26.1538,4.6157,2.5645,5.6411,0.5127,25.6411,-5.1279,0.5127,
2.564,-3.5898,0,-24.1025,-42.564,0,-24.1025,6.1538,0,3.0771,-2.0513,19.4873,-4.1025,5.6411,
0.5127,-0.5127,-1.0259,-23.0771,-44.1025,-1.5386,-24.1025,6.6665,2.0513,6.1538,0.5127,20.5127,-2.564,5.6411,
2.0518,1.0259,-2.0513,-21.0254,-44.1023,-5.6406,-27.1792,2.5645,0,5.6411,0.51318,13.3335,-3.5894,0,
4.6157,3.0771,0.51269,-17.436,-38.9744,-4.6152,-26.6665,6.667,0,2.0513,-1.5386,9.7437,-4.1025,0,
6.9231,0.76929,4.8718,-19.7434,-37.1794,-7.4358,-21.282,11.5383,4.3591,-0.76929,4.3591,12.5642,-1.7947,-3.8459,
8.7178,0,4.6152,-17.9487,-36.4104,-6.1538,-22.0513,9.7437,0,5.1279,4.6152,22.564,-2.564,-2.0513,
10.5129,0.76929,1.7952,-17.6921,-34.1023,-0.76929,-23.3333,5.385,-1.7947,8.4617,-2.8206,26.9231,-3.8459,5.385,
8.9744,1.7947,1.282,-20.7693,-28.9744,-1.282,-22.8206,4.8718,-1.282,2.3074,-2.8206,20.7693,-8.9744,6.4099,
6.4104,2.8206,-0.25659,-20.2566,-24.8718,-8.4617,-22.3079,8.4617,-4.3591,0.25659,2.3079,14.1028,-11.0256,3.3333,
9.231,1.0254,3.0767,-20,-28.7178,-9.231,-14.8721,5.6411,1.5386,-2.0513,5.1279,0,-0.5127,0,
9.2305,2.564,1.5386,-20,-33.8462,-1.5386,-13.8462,4.6152,7.6924,-7.1797,3.5898,-13.3335,6.6665,-4.1025,
6.4102,6.4102,1.2822,-17.6924,-33.0769,-1.2822,-14.6152,11.0254,7.436,-3.3335,5.8975,-7.436,6.9229,-4.8716,
4.3591,-0.25659,2.3079,-19.2307,-35.1282,-7.4358,-18.718,10.0002,0.25659,-2.3079,1.7947,1.282,0.76929,-7.9485,
11.5386,-0.25635,2.8203,-13.0771,-36.6667,-2.8203,-18.2051,9.4873,0.25635,-2.3076,3.3335,7.9487,0.25635,-2.3076,
12.0515,-0.76929,0.76929,-9.4871,-43.8462,-6.9231,-14.6155,4.8718,1.282,-6.9231,2.8206,7.949,-1.282,4.8718,
11.5383,2.3074,1.282,-7.949,-32.0515,-4.8718,-13.5896,5.3845,-1.282,-8.4617,1.282,1.7947,-3.8464,6.4104,
13.5898,2.8203,0.25635,-10,-18.7178,6.9229,-13.0771,8.4614,1.2822,-6.9229,7.436,-8.4614,-0.25635,-0.25635,
14.6157,0.25635,-0.25635,-15.6411,-28.9744,6.4102,-13.5898,10.5127,6.9233,-1.7949,12.5645,-5.3843,4.8721,-4.8716,
11.0256,0.25659,-4.8718,-18.2053,-33.5898,-0.25659,-21.282,8.4617,0.25659,0.25659,6.9231,-0.25659,1.282,-5.8972,
16.4099,4.1023,-1.0256,-14.8718,-22.0515,4.615,-16.4104,7.1794,1.0256,-1.5388,5.6409,-3.5901,1.5383,-1.0256,
17.4355,5.1279,0,-15.8975,-28.2051,8.2051,-15.3848,6.1538,0,-5.6411,1.5381,-1.5386,-2.0513,5.6406,
14.3591,4.1023,-1.5383,-11.282,-37.436,9.2307,-19.4871,7.6921,-1.5383,-4.6155,1.5383,7.1794,-2.0515,9.7434,
12.8206,1.0256,-1.5383,-9.2307,-33.8459,6.6667,-21.0256,5.6414,-1.0256,-7.6921,5.1287,4.1028,-2.5637,4.6155,
8.2051,2.0513,-1.5386,-13.3335,-38.4617,7.6924,-24.1025,3.5898,-3.5898,-8.2051,3.0767,1.5386,-8.2051,3.5898,
4.6155,-0.51294,0.51294,-11.7947,-47.6921,9.7439,-23.0769,4.1028,-4.1023,-1.5383,0.51294,6.6667,-6.1536,6.1541,
2.8208,-1.7949,0.25635,-8.4614,-44.3589,12.5645,-23.8462,4.8721,-3.8462,4.8721,-0.25635,13.0771,-3.333,2.3076,
0.25635,-0.25635,-3.333,-12.0513,-47.4358,10.5132,-26.9229,3.8462,-1.2817,5.3848,0.25635,13.0771,-5.3843,1.2822,
-1.0259,0,0,-13.8462,-52.8206,5.6411,-26.1538,2.0513,1.0254,-4.1025,2.0513,5.1279,-6.667,3.5898,
-1.7949,2.8203,-0.25635,-7.436,-48.4617,9.4873,-26.4102,5.8975,0.25635,-9.4873,2.3076,0.76904,-6.4102,4.3589,
-3.5898,0.5127,-0.5127,-8.7178,-53.3333,13.3335,-21.5386,7.1797,4.1025,-2.564,2.0513,6.1538,-2.564,5.1279,
-8.7178,0,0,-15.8975,-62.564,10.2568,-20,5.6411,2.0513,5.1284,0,13.3335,-4.1025,5.6411,
-11.5386,3.3335,-2.3076,-18.7178,-56.1538,10.5127,-19.231,8.4614,-1.2822,7.9487,1.2822,16.1538,-3.3335,8.9746,
-11.0256,-2.8206,-3.3333,-25.3845,-54.1025,9.4871,-19.2307,6.9231,2.8206,0.25659,1.7947,13.5896,-0.25659,10.0002,
-7.1794,-1.0256,-1.5383,-23.5896,-50.2563,12.8206,-19.9998,9.2307,6.6667,-1.5383,4.1028,10.2566,1.0256,10.7693,
-7.6924,2.0513,-2.0513,-22.564,-49.231,10.769,-16.9233,9.7437,6.6665,-3.5898,4.6152,0.5127,2.564,-0.51269,
-9.4873,3.3335,-0.25635,-24.8716,-55.6409,10,-16.6665,11.0259,5.8975,0.76953,0.25635,-0.76904,4.3589,-1.2817,
-13.3335,0.51269,-4.1025,-25.6411,-59.4871,13.8462,-27.6924,9.231,1.0259,5.1284,-4.1025,9.231,-0.5127,9.7437,
-7.1797,2.564,-0.5127,-20,-50.7693,17.436,-25.1284,8.2051,0.5127,5.1279,-2.0513,21.0254,-2.0513,10.769,
-0.5127,3.5898,0.5127,-19.4873,-48.2051,18.4614,-20.5127,10.769,-1.5386,7.6924,-6.1538,25.6411,-2.564,7.1792,
-1.2822,2.3076,-1.2822,-22.8203,-51.0256,19.7437,-21.7949,11.0259,1.2822,9.4873,-10,24.3589,-1.2822,13.5898,
-1.282,6.4104,0.25659,-18.2048,-45.8975,20.2566,-23.8459,5.8977,-0.25659,5.3845,-12.5642,19.2307,-6.9231,13.0769,
-1.0256,6.6667,1.0256,-17.9485,-44.6155,19.4871,-24.6155,3.5896,-6.6667,1.0256,-13.3333,20.0002,-12.8206,3.5896,
-2.8203,0.25635,3.8462,-23.8462,-50,19.7437,-21.2822,4.8721,-0.25635,2.3076,-7.9487,18.2051,-4.8716,8.9746,
-7.4355,1.2822,0.25635,-25.8975,-51.0254,20.7695,-24.8716,6.4106,-0.25635,1.7949,-10,11.5386,-1.7949,20.2563,
-2.5642,4.6155,0.51294,-20.5129,-45.6409,22.0515,-21.0256,11.282,-0.51294,2.5642,-9.2307,16.4104,-3.5896,17.949,
0.51294,-1.5383,3.5896,-22.5642,-47.1794,14.8718,-15.3845,8.718,-0.51294,2.051,-9.7434,14.8718,-4.1028,3.5896,
-2.5642,-0.51294,3.0769,-22.0515,-50.7693,13.3333,-18.9744,9.7434,0.51294,3.0769,-11.282,13.8459,-1.5383,6.6667,
-1.0256,-1.0256,1.0256,-23.5896,-56.4102,12.8206,-25.1282,10.2566,4.1028,1.5388,-8.7175,17.949,-2.051,13.3337,
4.615,-1.0256,-1.0256,-22.0515,-53.8462,15.3845,-26.6667,9.7434,1.0256,4.1023,-5.6414,26.1536,-4.6155,11.282,
3.8459,0.25659,-0.25659,-17.1794,-49.4871,19.7434,-22.8206,10.5129,-3.3333,7.4358,-8.4617,21.282,-1.282,9.4871,
2.3079,-1.282,0.76929,-18.718,-54.1025,16.6667,-22.8206,7.4358,-2.3079,2.3079,-16.1541,7.949,-0.76929,7.949,
6.1541,1.0256,-2.051,-17.9485,-48.2048,16.4104,-25.6409,7.1799,-1.0256,4.6155,-15.3845,10.2566,-5.1282,7.6926,
6.4106,1.7949,-2.3076,-17.1792,-41.282,16.1538,-23.8462,5.3848,-1.7949,6.4106,-14.1025,18.2051,-6.4102,4.3594,
5.8972,0.25659,-0.25659,-16.6667,-42.8206,17.6921,-23.8464,6.4104,-6.4104,7.4358,-19.7434,27.9485,-8.9744,6.4104,
9.4871,-1.282,1.282,-12.5642,-40.7693,18.2053,-22.3079,14.1028,-3.8459,11.5383,-18.2048,34.1028,-8.9744,19.2307,
8.4614,-1.7949,1.7949,-15.6411,-40.2563,12.564,-25.8975,13.5894,-2.3076,7.4355,-18.2051,27.4355,-12.5645,18.7178,
9.231,0.5127,-0.51269,-15.8975,-43.0767,17.9487,-33.8462,13.3335,-7.6924,3.5898,-22.564,26.1538,-17.436,14.3589,
14.1028,-1.282,1.282,-11.0256,-43.8462,27.4358,-26.4104,14.6155,-2.3079,6.9231,-15.1282,30.0002,-9.9998,13.5896,
8.2053,-3.0769,-0.51294,-10.2566,-44.1025,23.0769,-22.5642,15.3845,0.51294,6.6667,-9.7434,23.5896,-6.1541,12.8206,
4.1023,1.0256,-2.5642,-11.282,-43.5898,17.9485,-26.6667,16.9231,-1.0256,3.0769,-10.7693,15.3845,-7.1794,18.9744,
9.7439,3.0769,-0.51294,-14.8718,-44.1025,19.4871,-26.6667,7.6926,-1.0256,0.51294,-11.7947,16.4104,-7.1794,14.8718,
13.3333,2.5642,-2.5642,-17.4358,-42.5642,23.5896,-28.2053,6.6667,-2.5642,2.5642,-12.8206,18.4617,-6.6667,4.6155,
12.8208,1.5386,-1.5386,-17.4355,-45.1282,23.0771,-28.7178,13.8462,-4.1025,4.1025,-13.333,14.3589,-10.2563,5.6411,
13.333,-0.5127,0.5127,-15.3848,-48.718,24.6152,-30.2563,12.3076,-7.6924,0.5127,-15.8975,17.436,-20,12.8203,
14.1025,-0.25635,2.3076,-15.6411,-42.8208,29.4868,-28.4619,10.5127,-6.9233,0.25635,-14.6157,31.0254,-16.1538,17.6924,
13.8462,0,0,-22.5645,-41.5386,24.6152,-25.1284,11.7949,-5.1284,3.5898,-14.8721,32.3076,-8.2051,19.4873,
17.1797,3.8462,-3.8462,-18.7178,-47.4358,28.4614,-27.9487,17.6924,-5.3848,12.564,-15.6411,35.6411,-11.0254,34.4873,
15.8975,2.0513,-2.0513,-20,-47.6924,30.2563,-29.231,14.8716,-5.1284,11.7949,-12.8203,35.3848,-11.7949,37.436,
14.8716,0,0,-25.6411,-35.3848,21.5381,-25.6411,9.7432,-5.6411,4.6152,-14.3594,22.0513,-8.7183,22.436,
15.6414,2.8206,-2.8206,-18.7175,-27.9485,23.8464,-22.3074,12.5642,-4.8718,6.9231,-14.615,14.1028,-7.4358,7.436,
12.564,-0.25635,-2.3076,-10,-34.1025,24.8716,-21.7949,13.0767,0.25635,7.9487,-10.5127,19.2305,-6.4102,18.2051,
14.3591,-2.0515,2.0515,-8.718,-25.1282,22.5642,-23.0769,13.3333,-2.0515,4.1028,-6.6667,24.1028,-8.718,22.0515,
16.6665,-2.3076,3.8462,-13.0771,-15.6411,22.8203,-21.7949,10,-4.8721,2.3076,-9.4873,18.7178,-13.0771,11.0254,
11.5383,-0.76929,0.76929,-14.6155,-25.8972,23.3333,-22.8206,7.4358,-4.8718,3.3333,-15.1282,14.6155,-15.1282,10.0002,
9.231,3.5898,-2.564,-11.7949,-29.7437,23.5898,-24.6152,12.3076,-8.7178,2.564,-15.8975,17.436,-14.8716,17.436,
15.3843,-2.564,3.5898,-12.3076,-27.1797,24.6152,-23.0771,12.3076,-8.2051,2.564,-15.8975,19.4873,-14.3589,18.4614,
13.5898,-4.3589,4.8716,-12.564,-27.436,25.3848,-26.4102,7.9487,-10,4.3589,-21.7949,24.3589,-17.6924,12.0513,
13.8462,0,0,-10.2563,-23.5898,21.5386,-26.1538,7.6924,-13.3335,3.0767,-25.1284,25.6411,-16.4102,8.7178,
22.051,0.51294,4.1023,-8.2053,-15.3845,25.1282,-23.0769,11.282,-12.3079,-0.51294,-22.5642,19.4871,-13.3333,21.0256,
20.2561,0.76929,2.8206,-11.5388,-16.1541,29.9998,-24.8718,12.051,-11.0256,-0.76929,-22.8206,12.051,-16.6667,24.8718,
18.718,-0.76929,0.76929,-17.6921,-21.282,28.4617,-18.718,12.0515,-5.8972,2.3079,-20.2561,11.0256,-14.1023,11.5383,
20.2563,-0.25635,0.25635,-13.5898,-16.1538,28.9741,-17.1797,12.0513,-5.3848,7.9487,-22.3076,18.2051,-13.0771,17.1792,
16.4102,2.0513,-2.0513,-8.2051,-16.4102,29.2305,-22.564,11.2817,-5.1284,14.3589,-22.564,28.2051,-14.8721,27.6924,
13.333,2.0513,-2.0513,-13.3335,-29.7437,29.2305,-21.5386,12.8203,-3.5898,13.333,-17.436,28.7178,-13.8462,16.9229,
14.6155,1.7947,-1.7947,-15.6409,-34.1028,27.9485,-22.3079,11.0256,-7.949,8.9744,-21.282,23.8459,-14.6155,11.5383,
18.2051,-0.25635,0.25635,-12.564,-23.8462,25.3848,-25.8975,6.9233,-8.9741,10.5132,-25.8975,25.3848,-18.2051,17.1797,
20.7695,1.7949,-1.7949,-12.564,-17.1792,28.4614,-26.9229,10.5127,-7.9487,11.0259,-21.7949,29.4873,-19.2305,19.231,
18.4617,2.5642,-2.5642,-17.9485,-22.5642,31.282,-21.0256,14.8718,-4.6155,4.6155,-16.9231,25.1282,-11.7947,17.9485,
18.9741,-1.5386,1.5386,-16.4102,-27.1797,27.1792,-17.436,10.769,-6.1538,1.5386,-20,22.0513,-9.7437,13.333,
22.3076,-0.76904,0.76904,-9.4873,-25.8975,25.8975,-24.3589,7.9487,-14.6152,7.9487,-24.8716,30,-19.231,12.564,
23.3335,-0.76904,0.76904,-13.0771,-25.8975,24.8716,-25.3848,6.9229,-14.1025,7.436,-24.3589,30,-20.769,20.769,
20,-0.5127,0.5127,-19.4873,-24.6152,24.1025,-23.0771,6.1538,-13.3335,3.5898,-24.1025,25.1279,-21.0259,21.5386,
18.2051,1.2822,-1.2822,-21.2822,-23.3335,25.8975,-21.7949,7.9487,-11.0259,11.5386,-18.7178,28.9741,-18.7178,14.1025,
16.6665,-0.25635,0.25635,-21.2822,-30.5132,24.8716,-20.2563,6.9229,-5.8975,12.564,-17.1797,25.3843,-16.1538,8.4614,
17.1794,0.25659,-0.25659,-17.6921,-33.5896,25.3845,-23.3333,6.9231,-10.0002,4.8718,-23.8459,13.5896,-19.2307,9.4871,
19.4875,-1.0256,1.0256,-11.282,-26.1536,26.6667,-20.5125,7.6926,-10.7693,4.1028,-21.5383,14.8718,-17.4358,15.8977,
19.231,-1.2822,1.2822,-8.9741,-22.8203,25.8975,-19.7437,7.436,-7.436,10,-22.3076,29.8718,-17.1797,24.8716,
16.9229,0,0,-10.7695,-25.1284,25.1279,-25.6411,8.7178,-8.7178,13.3335,-23.0771,44.8718,-21.0259,29.2305,
17.1797,-3.3335,0.25635,-12.564,-27.436,22.3076,-28.9741,5.8975,-10.5127,7.9487,-8.0771,37.6924,-21.2822,16.1538,
17.4358,-3.5896,-5.1282,-9.7434,-24.1023,25.1282,-29.2307,5.1282,-11.7947,6.6667,6.9229,30.7693,-19.4871,3.5896,
20.2563,-0.76904,-5.3848,-8.4614,-19.231,29.4873,-24.8716,6.4102,-10.5127,8.9741,0.76904,28.4614,-17.1797,7.436,
20.7693,2.3079,-2.3079,-9.4871,-19.2307,25.8972,-23.8459,5.8972,-13.5896,5.3845,-14.231,14.6155,-18.2053,12.0515,
18.2051,4.3589,-2.3076,-4.3589,-23.3335,26.9229,-22.8208,10,-10.5132,2.3076,-25.3848,6.9229,-13.0771,10,
15.8975,0,0,-2.0513,-28.2051,28.7178,-19.4873,12.3076,-3.0771,5.1279,-21.5386,16.4102,-7.6924,12.8203,
18.7178,0.25635,-0.25635,-3.3335,-23.8462,27.9487,-21.2822,13.5898,-7.9487,11.5386,-26.4102,31.4102,-13.5898,27.8203,
21.5383,3.0769,-3.0769,-5.6409,-19.4871,26.6667,-19.4871,10.2561,-10.7693,8.2048,-27.6926,30.7693,-15.8977,29.7434,
22.0515,3.0769,0.51294,-7.1794,-15.3845,26.6667,-16.4104,6.1541,-6.1541,-0.51294,-25.1282,16.9231,-13.3333,14.7434,
18.718,-0.25659,2.3079,-8.9744,-13.0769,27.4358,-20.7693,7.9485,-5.8977,0.25659,-23.3333,10.5129,-12.5642,1.282,
13.0769,-3.3333,3.3333,-13.5896,-28.0769,22.8206,-18.718,6.4104,-3.3333,4.8718,-19.2307,11.0256,-11.5383,15.1282,
11.2822,-2.0513,3.0771,-15.3848,-32.8203,18.9741,-14.3589,3.0771,-3.0771,2.0513,-17.9487,3.5898,-9.231,7.1797,
26.2822,4.6157,7.1797,-11.7944,-17.8203,23.0771,-4.1025,7.1797,0,-2.564,-15.8975,-9.2305,0,-2.564,
36.6667,8.9744,9.4875,-10.5125,-2.8203,22.8206,-1.282,7.4363,-1.282,-3.8459,-18.2048,-8.9744,-0.76929,0.76929,
21.6667,1.282,2.3074,-17.1794,12.1797,12.051,-12.5642,-1.282,-10.5129,-2.3079,-25.8977,4.8718,-14.1028,5.3845,
18.7183,-3.333,3.3335,-18.2051,16.667,8.9746,-9.4873,-2.3076,-4.8716,2.3076,-21.7949,18.7183,-11.0254,8.9746,
20.5127,-6.1538,1.5386,-16.9229,19.4873,12.3076,-10.769,-0.5127,-6.6665,0.5127,-25.6411,15.3848,-10.769,5.1284,
15.3845,-3.5896,1.5388,-18.9744,19.4875,16.9231,-12.8206,-1.0256,-7.6921,1.0256,-23.0769,5.1282,-11.282,4.1028,
11.7952,1.5388,2.0515,-27.6921,15.3845,10.2566,-9.7434,-1.0256,-1.5383,0.51294,-14.8718,-0.51294,-8.2048,4.1028,
8.718,2.0515,-5.1282,-28.2053,7.6921,8.2053,-14.3591,1.0256,-4.6155,-1.0256,-18.4617,1.0256,-9.7434,2.5642,
10.5127,0.25635,-0.25635,-19.231,8.9741,15.6411,-15.6411,2.3076,-7.436,0.25635,-21.7949,-2.3076,-7.436,4.3589,
15.1279,5.3843,7.9487,-16.1538,18.2051,19.2305,-17.1797,1.7949,-7.436,-1.7949,-21.7949,-8.9746,-8.4619,5.3843,
14.3591,10.2566,5.6409,-16.9231,13.8459,17.9485,-14.8718,1.5383,-6.1541,-1.0256,-21.5383,-4.1028,-10.7693,1.0256,
7.6921,3.5896,4.1028,-15.8972,-0.51294,14.8718,-12.8206,-2.051,-7.6921,0.51294,-24.1028,2.0515,-11.282,2.5642,
3.3333,2.8206,1.7947,-15.1282,-1.7947,14.6155,-19.7434,-2.8206,-7.949,1.7947,-24.8718,5.8972,-9.4871,12.051,
3.3333,4.8718,-1.7952,-18.2053,1.282,15.1282,-20.7693,-1.282,-4.3591,2.3074,-22.3079,12.5637,-6.4104,16.1536,
5.3848,5.3848,-1.7949,-14.6152,0.25635,17.6924,-18.2051,-0.25635,-7.436,4.8721,-23.3335,18.7183,-10.5127,12.564,
1.0254,6.6665,-1.0259,-12.8208,0.5127,17.9487,-17.9487,-0.5127,-9.231,4.1025,-23.5898,10.2563,-14.3589,3.5898,
-2.5637,7.6926,-1.0256,-19.9998,1.0256,16.4104,-14.8713,1.0256,-2.5637,2.5642,-16.4099,3.0774,-6.1536,7.6926,
-4.1025,6.6665,-5.6411,-24.1025,0,17.9487,-15.3848,4.6152,-3.0771,4.6152,-14.8721,13.3335,0,21.0254,
-3.5896,5.6409,-4.1028,-22.0515,1.0256,17.9485,-14.3591,5.1282,-2.5642,3.5896,-18.4617,18.4617,-1.0256,17.9485,
-1.282,7.949,-3.3333,-24.8718,2.3079,17.6921,-16.1536,1.7952,-4.3591,1.282,-22.8206,8.4617,-8.9744,3.3333,
-0.25635,6.9233,-7.436,-25.8975,4.8721,19.7437,-16.1538,3.8462,-7.436,0.25635,-20.2563,3.8462,-8.4614,9.4873,
0.51294,2.5642,-4.6155,-24.6155,7.6926,20.0002,-10.7693,3.0769,-0.51294,-1.5383,-14.3586,5.6414,-2.051,19.4871,
0.25635,2.3076,-2.8203,-22.8203,8.9746,19.7437,-14.1025,0.76904,-0.25635,-1.2822,-15.6411,5.8975,-5.3848,11.5386,
1.282,2.8206,-1.7947,-21.7947,6.9231,17.1794,-15.1282,-0.25659,-5.8972,0.25659,-19.2307,8.9744,-8.9744,2.3079,
2.0513,3.5894,-1.0259,-20.5132,4.6152,16.4102,-12.8208,0,-9.7437,0,-21.5386,10.769,-11.2822,6.1538,
1.0256,3.5901,-2.051,-18.9744,2.5642,20.5129,-13.3333,4.1028,-9.7434,-1.0256,-25.1282,7.1799,-9.7434,21.1538,
4.3589,2.3076,0.25635,-21.7949,4.3589,20.2563,-11.0254,5.3848,-8.4614,-6.9229,-23.8462,-0.25635,-5.8975,21.7949,
9.231,12.3076,1.5386,-18.9741,15.3848,21.5386,-12.3076,6.667,-8.7178,-8.7178,-15.8975,-1.5386,-5.6411,6.7949,
8.2056,15.8975,3.0771,-10.769,16.4106,24.1025,-11.2817,6.667,-3.0767,-6.1538,-11.2817,-2.0513,-3.5894,2.0513,
6.4102,9.4873,4.8721,-9.4873,13.5898,21.7949,-7.9487,4.3589,-4.3589,-10,-16.6665,-5.8975,-4.8716,11.5386,
9.7437,8.2051,3.0771,-12.3076,24.6152,18.9741,-11.7949,4.6152,-12.3076,-15.3848,-20,-3.0771,-8.7178,8.7178,
11.5383,8.9744,3.3333,-13.0769,23.8464,17.1794,-11.5383,1.7952,-6.4104,-8.9744,-19.7434,1.282,-7.4358,-1.282,
2.051,1.5383,-4.6155,-17.4358,8.8464,17.9485,-14.3591,-1.0256,-5.1282,1.0256,-26.1541,2.5642,-6.6667,3.5896,
0,1.0254,-9.7437,-21.5386,0,22.0513,-13.3335,3.5894,-5.6411,8.7178,-21.5386,15.8975,-5.6411,16.9229,
0.5127,1.0259,-9.231,-26.6665,8.7178,11.2822,-16.9229,-0.5127,-9.7437,4.6152,-20.5127,21.0259,-13.8462,11.2822,
3.3335,4.8721,-7.9487,-24.8716,8.9746,11.5386,-15.6411,-3.3335,-8.9741,3.3335,-23.3335,8.9746,-11.5386,4.8721,
8.9744,7.9485,-3.8464,-21.7952,-0.76929,21.282,-5.8977,-1.7952,2.8206,0.76929,-15.6414,-3.3333,1.7947,10.5125,
8.4614,7.9487,-2.3076,-19.231,0.25635,21.7949,-8.4614,1.7949,0.25635,-3.8462,-13.5898,-0.25635,-2.3076,13.5898,
7.1794,3.5896,-3.0769,-16.9231,6.1536,15.8972,-18.4617,3.0769,-9.2307,-6.1541,-17.949,6.6667,-11.282,4.1023,
11.7949,3.5898,1.5386,-10.2563,-1.0259,15.8975,-16.4102,1.0259,-6.6665,-8.7178,-16.4102,4.1025,-7.1797,1.0259,
12.8208,11.7949,5.6411,-3.0767,-3.0767,22.564,-8.2051,2.564,-0.5127,-6.6665,-12.3076,0.51269,-1.5386,10.7695,
5.6409,8.718,5.6409,-9.2307,0.51294,17.949,-14.3591,1.5383,-0.51294,-4.1023,-10.2566,-5.1282,-1.0256,8.718,
2.3074,4.3586,5.3845,-10.0002,-12.5642,13.5896,-20.7693,3.8459,-1.282,-1.282,-9.4871,-3.8464,1.282,10.5129,
9.4871,6.9231,1.7947,-5.3845,-14.6155,14.6155,-5.7693,-1.282,-2.3079,-1.282,-13.5901,1.7947,1.282,16.6667,
17.436,8.2051,-3.5898,-10.2563,0.38452,20.5127,2.564,-7.1797,-6.6665,-2.564,-16.4102,3.0767,-7.6924,8.2051,
8.2051,7.6924,-3.0767,-12.3076,8.7183,25.1284,-12.436,3.0771,-7.1792,0,-14.8716,5.6411,-11.2817,0,
1.282,5.8972,5.3845,-4.3591,-6.2817,14.1023,-15.1282,5.8972,-0.76929,-2.3079,-14.6155,0.76929,-0.76929,9.4871,
13.5896,4.3591,0.25659,-4.3591,8.7183,8.4617,-0.12817,-9.1028,-6.9231,-14.1028,-26.9231,-14.2307,-0.25659,10.5129,
28.5896,8.2048,-0.51294,-4.6155,23.7183,23.4617,1.0256,-3.0769,-6.6667,-17.949,-27.1794,-20.5129,0.51294,1.5383,
37.9485,10.2566,11.282,1.5383,32.3079,38.4617,-13.9744,11.282,-4.1028,-21.5383,-30.2566,-22.5642,-1.5383,-8.718,
47.949,16.6667,16.1541,6.9231,47.3079,46.4104,-24.8718,16.1541,-12.051,-22.3079,-41.7949,-20.2566,-8.9744,-6.9231,
62.949,23.0769,17.4358,6.6667,62.3079,51.7947,-9.8718,16.4099,-15.3845,-21.5388,-41.0259,-26.1541,-7.1794,-6.6667,
58.4614,16.4102,11.2822,-0.5127,77.3079,37.9487,0.5127,4.6152,-21.5386,-34.8716,-44.6155,-41.1541,-11.7949,-18.9741,
57.949,22.0515,13.3333,7.6926,92.3079,44.6155,-11.282,4.6155,-15.8972,-29.7434,-37.9487,-32.8206,-8.718,-4.6155,
54.6155,15.6409,12.5642,-2.3079,107.3079,53.0769,-26.282,3.8459,-13.0769,-23.8464,-35.6409,-23.3333,-10.5129,2.3079,
45.1284,18.4614,15.8975,-4.6152,122.3079,50.769,-39.4873,11.2822,-10.2563,-17.436,-32.8203,-13.3335,-4.1025,4.1025,
33.8462,13.8462,10.2563,-6.6665,137.3079,35.769,-34.3589,6.1538,-13.333,-24.6152,-36.4102,-16.4102,-2.0513,2.0513,
31.282,5.1282,6.1541,-8.2048,125.6414,28.718,-46.6665,3.5901,-13.8459,-22.051,-34.8718,-16.4099,-3.0769,3.0769,
20.7693,2.3079,5.3845,-5.3845,110.6414,32.5642,-61.282,11.5383,-8.9744,-9.9998,-27.9485,-6.9231,-2.3079,8.9744,
6.9229,-3.8462,6.9229,-12.0513,95.6414,25.8975,-61.282,5.3848,-2.8203,-10.5127,-24.3589,-7.436,2.8203,8.9741,
4.1023,-8.2053,8.718,-12.3079,80.6414,21.0256,-67.6924,2.5642,-2.5642,-13.8464,-25.1282,-13.8464,4.6155,7.6921,
-0.51294,-9.2307,15.3845,-3.5896,65.6414,17.9485,-75.3848,12.8206,0.51294,-8.2053,-23.5896,-9.2307,7.1794,9.2307,
-10.0002,-11.5383,17.1794,-3.8459,50.6414,10.5129,-74.1025,11.0256,1.7947,-4.3591,-21.282,-1.7947,7.4358,15.6409,
-14.1025,-13.5898,6.9233,-12.0513,65.6414,7.436,-71.0256,5.3848,-2.3076,-2.3076,-23.333,5.8975,2.3076,18.7183,
-16.9231,-18.9744,4.6155,-17.9485,50.6414,3.0769,-76.9231,3.5896,-4.6155,-0.51294,-26.1536,10.2566,0.51294,10.2566,
-10.5129,-10.0002,12.051,-5.8972,35.6414,1.7947,-84.3589,5.3845,-1.7947,-1.7947,-21.282,6.9231,5.8972,13.5896,
-5.3845,-4.3591,9.4871,0.76929,50.6414,-0.76929,-80.769,4.8718,1.282,-7.9485,-14.6155,-4.3591,8.9744,18.2053,
-12.5642,-10.5129,10.5129,-6.4104,65.6414,0.76929,-72.564,9.4871,0.76929,-4.8718,-17.1794,-0.76929,11.5383,18.2053,
-25.8975,-20.2563,10,-16.6665,59.231,1.7949,-78.2051,5.3848,-6.4102,-1.7949,-25.8975,2.8203,6.4102,16.6665,
-21.282,-20.7693,16.6663,-10.5129,46.4099,1.282,-74.6155,3.8459,2.3074,-1.282,-18.2053,-1.7952,9.4871,19.2307,
-20.2566,-15.6409,19.7434,-3.3333,31.4099,-3.3333,-74.6155,8.9744,8.4617,0.76929,-12.5642,-0.76929,14.6155,20.7693,
-28.2051,-15.8972,16.9231,-7.6921,16.4099,-5.1282,-78.9744,7.6926,7.6926,5.1282,-12.8206,5.1282,16.4104,21.5383,
-27.1797,-23.0771,12.3076,-14.3594,1.4099,-2.0513,-82.0515,2.0513,4.6152,4.6152,-16.9233,6.6665,10.2563,15.8975,
-30.5129,-25.3848,4.8716,-15.6411,4.8716,0.25635,-88.9746,-0.25635,-1.2822,10,-20.2563,14.1025,2.8203,13.0767,
-37.9487,-22.0513,4.6152,-15.8975,-8.7183,-0.5127,-88.2053,0.5127,5.6411,15.8975,-12.3076,19.4873,7.6924,20,
-44.3591,-21.2822,2.3076,-19.231,-23.7183,-2.3076,-87.9487,2.3076,8.4614,8.4614,-12.0513,11.5386,8.4614,16.1538,
-44.8721,-24.8721,2.8206,-18.2053,-25.8977,-2.8206,-85.3848,5.3845,5.8972,5.3845,-15.6414,6.9231,10.5125,6.4099,
-37.1797,-26.4104,6.9231,-18.718,-10.8977,-1.282,-80.2566,0.76929,4.3586,12.051,-16.1541,17.6921,10.5125,13.5896,
-33.8462,-21.0256,5.6409,-18.4617,4.1023,-0.51294,-78.9744,-2.5642,0.51294,17.949,-16.9231,31.282,4.1028,28.5896,
-31.5386,-15.6411,11.5386,-14.1025,-10.8977,-6.4102,-66.9231,6.4102,8.4614,20.769,-7.9487,35.1279,12.564,32.564,
-34.1025,-20.7693,6.9231,-21.2822,-20.7693,-12.0515,-65.8975,7.9485,9.9998,16.1536,-6.9231,22.3079,16.1536,19.2307,
-32.564,-18.718,2.3079,-25.8975,-5.7693,-2.3079,-70.5127,4.3591,7.949,17.1794,-8.9744,15.6409,13.0769,17.1794,
-27.9487,-15.6409,9.4871,-20.7693,-20.7693,-2.3079,-66.9231,2.3079,12.051,17.6921,-7.4358,18.718,10.5129,21.7947,
-27.949,-17.6924,10.5127,-14.1025,-35.7693,-10,-67.436,5.8975,13.0767,18.7178,-5.8975,20.769,8.9741,24.3589,
-26.1538,-15.8975,11.2822,-13.3335,-32.8206,-7.6924,-63.5898,6.6665,10.769,21.0254,-6.6665,23.5898,12.3076,25.1284,
-22.0515,-10.2563,15.3843,-11.2822,-17.8206,-6.1538,-56.9231,6.6665,6.1538,18.9741,-10.7695,30.769,10.769,26.6665,
-20.2563,-11.5383,13.5896,-11.0256,-32.8206,-7.4358,-55.6409,11.0256,7.4358,14.6155,-7.4358,26.9231,12.5642,25.3845,
-24.8718,-17.6924,7.9487,-16.6665,-44.3589,-7.9487,-55.6409,6.4102,11.5386,6.9233,-6.4102,11.9231,16.1538,19.231,
-25.1282,-14.8716,4.6152,-14.3589,-37.9487,-4.1025,-55.8975,5.6411,8.2051,4.1025,-8.7178,10.2563,14.8716,21.5386,
-20.7693,-11.5383,5.3845,-11.5383,-52.0513,-7.949,-54.1025,6.9231,7.4358,12.051,-5.3845,20.7693,15.6409,18.718,
-19.7437,-7.9487,9.4868,-6.9233,-59.7437,-11.0259,-55.1284,5.8975,6.4102,20.769,-5.8975,27.4355,14.1025,20.2563,
-21.7949,-9.4873,12.0513,-1.7949,-44.7437,-7.9487,-53.5896,5.3848,1.7949,20.7695,-13.5898,32.564,10,30.5127,
-21.2822,-15.6411,16.1538,-3.3335,-39.7437,-14.6152,-46.9231,3.3335,4.3589,19.231,-11.0259,30.5127,11.5386,24.3589,
-23.5901,-14.3591,11.282,-7.1799,-54.7437,-18.9744,-53.8464,1.0256,5.6409,19.4871,-1.0256,24.615,8.2048,13.3333,
-32.0515,-13.0769,3.8459,-14.6155,-69.7437,-17.6926,-61.7949,0.76929,6.9231,13.5896,-0.76929,16.6663,6.9231,15.6409,
-30.7693,-10.2563,5.1284,-17.9487,-67.1794,-14.8716,-52.3076,6.1538,11.7949,13.8462,-5.1284,14.8716,15.8975,16.9229,
-27.4358,-8.9741,6.4102,-15.6411,-77.6921,-14.6152,-44.3589,5.8975,8.9746,17.6924,-5.8975,18.7178,14.1025,8.4614,
-28.2051,-12.8206,12.8206,-11.7947,-87.6924,-17.9485,-43.5898,-0.51294,5.6409,14.3591,0.51294,23.0769,7.6921,11.7947,
-29.4871,-10,12.564,-12.0513,-77.6921,-19.7437,-52.0513,2.3076,2.8208,13.0771,-2.3076,26.4102,6.4102,22.8208,
-26.1538,-4.6155,11.7952,-14.3586,-70.769,-14.8718,-52.8203,8.718,4.6155,17.4363,-8.718,30.7693,8.718,21.5388,
-23.333,-5.8975,17.1797,-12.564,-76.1538,-9.4873,-48.4614,5.8975,8.4614,18.7183,-5.8975,35.6411,8.4614,18.7183,
-31.0256,-9.4873,8.9741,-14.6152,-79.7437,-12.0513,-54.1025,1.7949,7.9487,16.6665,-1.7949,30,6.9229,19.231,
-38.2053,-12.5642,0.76929,-23.8464,-86.4104,-18.2053,-56.1541,2.3074,9.4871,12.051,-0.76929,19.2307,7.9485,17.1794,
-37.9487,-8.2053,5.6409,-24.6155,-88.718,-17.4358,-49.2307,3.0769,6.6667,7.1794,-3.0769,15.3845,8.2053,16.4104,
-34.3591,-6.667,14.3589,-14.8721,-88.2053,-15.3848,-44.6155,3.5898,5.1279,7.1792,-3.5898,18.9741,10.2563,21.5386,
-34.6152,-12.051,14.6155,-18.718,-92.0513,-19.7434,-45.8975,1.282,6.4104,10.5129,-1.282,18.2053,8.4617,19.7439,
-38.7178,-11.0256,5.8977,-28.9744,-81.282,-18.2048,-41.282,0.76929,2.3079,10.0002,-0.76929,16.6667,4.8718,18.2053,
-38.7178,-9.4871,3.3333,-29.4871,-68.4614,-17.6921,-33.0769,-0.76929,4.3591,8.4617,0.76929,21.282,8.9744,22.8206,
-40,-8.2053,5.6409,-22.0515,-83.4614,-24.6155,-40,1.0256,8.2048,12.8206,-1.0256,23.0769,7.6921,23.5896,
-41.5383,-7.1797,7.1797,-20,-98.4614,-25.6411,-44.1025,3.5898,8.2051,14.3589,-3.5898,22.0513,6.1538,18.9746,
-36.6665,-9.4873,7.436,-23.3333,-88.4614,-22.8206,-33.0769,1.7949,8.4614,12.0513,-1.7949,23.3335,6.9233,20.2563,
-37.9485,-10.769,2.0513,-26.1538,-77.9485,-28.2051,-29.7434,4.1025,6.1538,14.8721,-2.0513,31.2822,4.6157,26.667,
-39.2307,-11.0259,1.7949,-26.4104,-82.8206,-29.4873,-30.5129,3.8462,5.8975,14.1025,-1.7949,28.9741,6.4102,24.8716,
-40.2563,-11.5383,1.282,-27.4358,-88.4614,-31.5383,-31.0256,2.8206,5.8977,13.0769,-1.282,26.4104,7.949,23.3333,
-41.5386,-11.7952,1.0256,-27.6924,-93.3335,-32.8206,-31.7949,2.5642,5.6409,12.3074,-1.0256,24.1023,9.2307,21.5383,
-42.5642,-12.3076,0.5127,-28.718,-98.9744,-34.8718,-32.3076,1.5386,5.6411,11.2822,-0.5127,21.0254,10.769,20,
-43.8462,-12.5642,0.25659,-28.9744,-103.8462,-36.1538,-33.0769,1.282,5.3845,10.5129,-0.25659,18.718,12.5642,18.2053,
-45.6409,-13.333,0,-29.7434,-109.2307,-38.4614,-33.8459,0,5.6411,9.231,0,15.8975,14.3589,16.9233,
-45.1282,-14.3589,1.5386,-31.7949,-111.282,-38.4617,-32.8206,0.5127,5.6411,8.2051,-0.5127,12.8203,12.3076,11.7949,
-37.4358,-12.8206,0.51294,-30.769,-101.0256,-40.5127,-25.6409,3.0769,5.1282,5.1282,-0.51294,17.4358,5.6414,8.718,
-32.8206,-15.8977,1.5383,-33.8462,-99.4873,-46.1541,-21.0256,-0.51294,5.1282,2.5642,0.51294,17.9485,2.5642,13.8459,
-37.1794,-12.564,2.8203,-32.5642,-110,-44.8718,-24.8718,-0.25635,2.3076,11.0254,0.25635,25.3848,2.8203,19.7437,
-40.2566,-6.9231,1.7947,-27.949,-124.3591,-44.8721,-27.949,0.76929,2.3074,18.2048,-0.76929,36.1536,4.3586,19.2307,
-36.9231,-7.1794,2.5642,-24.6155,-127.1797,-44.1028,-26.1541,4.1023,5.1282,18.9744,-2.5642,39.9998,6.1536,19.4871,
-38.2051,-12.564,0.25635,-26.9231,-116.1538,-41.282,-22.3076,4.8721,5.3848,20.2563,-0.25635,35.6411,7.9487,17.1797,
-38.2051,-16.1538,-0.25635,-30.5129,-110.5129,-45.3845,-19.231,0.25635,4.8716,20.2563,2.3076,33.0767,4.3589,21.2822,
-35.6409,-12.0513,-0.25635,-29.4871,-117.6921,-47.9487,-25.3843,1.2822,3.3335,16.667,0.25635,33.5898,1.2822,30,
-35.1284,-11.0256,-0.76929,-29.4873,-118.2053,-46.9233,-26.4104,0.76929,6.4099,5.3845,2.3074,23.8459,3.3333,21.7947,
-32.0513,-9.4873,0.25635,-30,-104.3589,-45.3845,-19.7437,-0.25635,9.4873,4.3589,6.9233,21.2822,4.8721,13.0771,
-32.3076,-8.7178,-2.0513,-28.7178,-106.1538,-42.564,-17.4355,4.1025,2.5645,17.9487,2.0513,31.7949,3.5898,20,
-33.3335,-12.3079,-1.0256,-28.718,-115.3848,-45.1284,-12.8206,4.1023,2.051,21.5383,1.0256,36.4099,6.1536,23.0769,
-29.7437,-9.7434,-1.5383,-30.2563,-107.1794,-47.6924,-15.3845,1.5383,3.0769,13.8459,3.0769,32.8206,1.5383,19.4871,
-27.9487,-7.4358,0.25659,-30,-98.2051,-43.3333,-17.6921,4.8718,5.3845,17.1794,1.7947,32.051,-0.25659,19.2307,
-30.7693,-13.8462,0.5127,-28.718,-101.0256,-45.6411,-15.3848,3.0767,6.1538,16.4102,-0.5127,24.1025,3.5898,16.4102,
-28.9744,-10.5127,-0.76904,-23.8462,-96.1538,-46.4102,-10.5127,3.3335,7.9487,13.0771,0.76904,21.2822,6.9233,19.7437,
-27.9487,-12.051,-0.25659,-32.564,-100.2563,-48.9744,-9.4871,2.3079,9.4871,13.5896,0.25659,21.7952,6.9231,21.282,
-31.5386,-15.1282,-0.25659,-38.718,-113.0769,-47.9487,-15.6409,1.7947,6.9231,16.6667,0.25659,20.2566,4.8718,21.7947,
-30,-8.9741,-1.2822,-30.5127,-113.5896,-44.3589,-15.6411,1.2822,7.436,17.6924,3.8462,25.8975,4.8721,19.231,
-26.9233,-5.8977,2.3074,-27.436,-110.5129,-47.949,-10.0002,-1.282,5.8972,15.6409,1.282,29.9998,6.4099,12.051,
-26.6667,-7.6926,5.1282,-24.1028,-108.718,-48.718,-6.6667,1.5383,1.5383,12.3074,-1.5383,26.1536,6.6667,17.9485,
-29.231,-11.7952,2.051,-23.0769,-110.7693,-50.2566,-3.5896,0.51294,2.5642,2.051,-0.51294,16.4104,5.1282,18.4617,
-28.2053,-6.6667,-1.0256,-21.0256,-103.5901,-47.6926,-5.6414,2.5637,7.1794,6.1536,1.0256,19.4871,7.1794,15.8972,
-28.9744,-4.3591,-2.3079,-20.2566,-93.5898,-45.3848,-10.5129,2.3079,7.4358,18.718,5.3845,28.4617,7.9485,19.7434,
-29.4873,-8.4619,-0.25635,-22.8208,-91.0259,-46.9233,-1.2822,0.25635,6.9229,19.2305,8.9741,34.1025,3.333,19.7437,
-32.8206,-9.2307,-5.1282,-25.1282,-94.3589,-48.718,1.5383,1.5383,4.1028,14.8718,2.0515,34.8718,-1.5383,19.4871,
-28.2051,-6.1538,-2.564,-24.1025,-89.7437,-46.1538,-0.5127,3.0771,5.6411,18.9746,0.5127,34.3589,5.1284,25.1284,
-25.6411,-5.6411,1.5386,-22.564,-84.1025,-46.1538,-2.564,0,1.0254,17.436,0,32.8203,4.1025,20.5127,
-29.7437,-9.7437,-1.0259,-23.5898,-80,-48.718,1.0254,0,1.0254,10.2563,1.5386,26.6665,0,11.7949,
-32.8206,-12.8206,-3.5896,-27.6924,-72.3079,-49.7437,6.6667,-1.0256,6.6667,6.1536,1.0256,16.4104,2.051,12.8206,
-30.7693,-6.1541,-3.5896,-26.6667,-60,-41.5383,7.6921,-1.0256,4.6155,7.1794,1.0256,18.4617,3.5896,17.4358,
-28.4614,-5.8975,-2.3076,-23.8462,-63.3333,-34.6152,8.4614,-4.8716,2.3076,7.436,3.8462,22.8208,3.3335,12.0513,
-26.9231,-6.9231,-0.76929,-18.2053,-74.1028,-33.5898,5.8972,-3.3333,4.8718,11.0256,1.7947,22.3074,0.76929,12.051,
-28.4617,-4.3591,-3.3333,-17.6926,-63.3335,-31.0259,7.4358,1.7947,4.8718,15.1282,0.76929,22.8206,-0.76929,13.5896,
-29.231,-3.5898,-1.5386,-21.0259,-48.3335,-24.6152,11.2817,-2.0513,4.1025,13.3335,3.0767,26.6665,1.5386,9.2305,
-26.6665,-2.564,3.0771,-17.436,-33.3335,-16.9229,7.1797,-4.1025,0.51269,11.2822,0.51269,26.6665,-0.5127,9.231,
-25.3843,-4.3589,4.8721,-19.7437,-39.2307,-17.6924,8.4614,-0.25635,3.3335,11.0259,0.25635,16.1538,-0.25635,10.5127,
-29.4873,-7.9487,-1.7949,-26.9231,-46.9231,-16.6665,11.0254,-1.7949,4.8716,11.5386,1.7949,13.0767,2.3076,10.5127,
-31.5386,-5.3845,-7.4363,-25.8977,-40.7693,-4.3591,10.5125,-3.3333,4.8718,17.1794,3.3333,26.4099,3.3333,14.6155,
-28.4617,-2.3076,-2.8203,-23.3335,-33.5898,-1.7949,11.5386,-2.8203,4.8716,19.7437,4.3589,31.0254,1.7949,15.6411,
-27.6924,0,-0.51318,-19.4873,-22.0513,-3.5898,11.7949,0,0,17.9487,0,30.2563,-4.6157,13.333,
-30.2563,1.0259,-2.0513,-22.0513,-7.0513,0,13.3335,-1.5381,0,11.7949,-6.1538,29.231,-5.1279,12.8208,
-32.0513,0.25635,-4.3589,-27.9487,7.9487,-0.25635,15.1284,-3.8462,1.7949,7.9487,-5.8975,24.3589,-0.25635,13.0771,
-32.5642,-3.8464,-8.9744,-25.8977,22.9487,-4.3591,14.6155,-1.282,1.282,12.051,-1.282,24.3586,1.7947,14.1023,
-34.6152,-5.3845,-4.8718,-21.282,33.5901,-7.4358,16.1541,-2.3074,4.3591,13.5901,0.76929,30.0002,-0.76929,12.0515,
-36.1538,-3.3333,0.76929,-20.2566,46.4104,-5.3845,16.1541,-3.8459,0.76929,15.1282,-0.76929,36.1541,-6.4104,13.5896,
-38.4614,-7.6919,0,-22.564,38.9746,-7.1792,17.9487,-5.6406,0,15.8975,1.0259,31.7949,-5.1279,12.8208,
-43.0769,-10.7693,-4.6155,-25.1282,23.9746,-10.2566,20.5129,-5.6409,5.6409,10.7693,1.5383,20.5129,-1.5383,1.5383,
-45.6409,-5.6409,-7.6921,-24.615,26.6667,-4.615,20.0002,-3.0769,4.6155,10.2566,1.0256,21.0256,-1.0256,2.0515,
-42.3076,-10.5129,-3.8459,-22.8206,30.0002,-2.3079,24.3591,-4.3591,3.8459,14.1028,0.25659,28.9744,-0.25659,13.0769,
-34.1025,-8.9741,0.76904,-18.2051,37.1797,-2.3076,28.4614,-1.7949,6.4102,16.6665,-0.76904,32.564,-1.2822,17.6924,
-30.5127,-1.7947,-2.3074,-19.7434,47.949,-4.8718,27.949,0.76929,2.3079,13.5901,-0.76929,26.4104,-0.76929,10.5129,
-30.0002,-2.3076,0.76904,-17.6924,47.9487,-4.8721,28.9741,-2.3076,-1.7949,12.0513,0.25635,26.4102,-0.25635,11.0254,
-31.7947,-4.1025,3.0771,-9.7437,52.3081,0,30.2563,-1.0254,-1.5381,16.9233,0,33.8462,-2.0513,18.4619,
-35.3845,-6.1536,-1.5383,-14.3586,62.0515,-2.051,32.8206,-1.5383,2.5642,16.4104,-1.0256,28.2053,1.0256,15.385,
-36.1538,-8.4617,-6.9231,-21.282,63.3333,-1.7947,30.5129,-2.3074,1.282,12.0515,-1.282,16.1541,4.8718,12.5642,
-36.6665,-10,-8.9741,-21.2817,61.2822,-0.25635,30,-1.7949,-1.7949,10.5127,0.76953,13.5898,0.25635,11.5386,
-33.5898,-5.8975,-3.8462,-17.6924,68.9741,-0.76904,36.1538,-1.2822,0.76904,13.0771,4.8716,20.769,-3.8462,12.0513,
-33.5898,-3.8462,-4.8721,-20.2563,78.2051,0.25635,31.5386,-2.8208,-0.25635,14.1025,0.25635,25.3843,-4.8721,11.5386,
-33.5896,-6.4099,-3.8459,-21.282,78.718,2.3079,28.9744,-3.3333,0.76929,13.0769,-1.7947,27.4358,-0.76929,12.5642,
-32.8206,-7.6921,-2.5642,-15.8972,74.8718,1.0256,30.2566,-4.1023,-3.5896,12.3079,0.51294,28.718,-0.51294,9.7439,
-31.5383,-6.4102,-1.2817,-14.1025,80.2563,-0.25635,32.0513,-2.3076,-1.2817,13.0771,2.8208,22.3076,0.25635,4.8721,
-30,-8.9746,-0.25635,-20.2563,84.8716,-4.8721,32.564,-5.8975,4.8716,9.4873,-0.25635,15.6411,0.25635,3.333,
-25.6409,-5.1282,1.0256,-14.3591,86.1536,1.0256,32.8206,-3.0769,-1.0256,9.7434,-5.1282,23.0769,-3.0769,12.3079,
-24.6152,-7.1797,0.5127,-12.8203,83.0771,4.1025,32.8203,-0.5127,-10.2563,4.6152,-9.7437,22.564,-8.7178,9.7437,
-24.8718,-8.4617,-0.25659,-22.3079,81.7947,2.8206,29.9998,0.25659,-10.5129,0.76929,-12.5642,16.6667,-10.5129,1.282,
-28.2053,-5.1282,-1.5383,-26.1541,82.5642,7.6921,29.2307,1.5383,-8.718,4.6155,-10.2566,19.4871,-8.718,4.6155,
-25.6411,-4.6152,0.5127,-23.0771,83.5898,12.3076,36.9229,-1.0259,-4.6152,9.231,-0.5127,21.0254,-3.5898,7.6924,
-22.0515,-3.0769,-2.0515,-20.5129,84.6155,13.8459,33.8459,-0.51294,-3.0769,9.2307,0.51294,19.4871,-3.5896,5.6409,
-25.1282,-2.051,1.0256,-22.5642,83.5901,13.8464,29.7439,-1.0256,-6.1536,7.6926,-6.1536,18.9744,-7.6921,3.5901,
-35.6409,-1.282,1.282,-27.949,81.7947,14.6155,30.5129,-6.4104,-13.0769,5.8972,-10.0002,17.1794,-13.0769,1.7947,
-43.0769,3.5898,-4.6152,-24.6152,82.5645,17.9487,33.8462,-3.5898,-8.2051,7.1797,-4.1025,18.4614,-9.2305,5.6411,
-42.5642,2.564,-3.0771,-17.9487,74.3589,15.8975,35.3848,-5.6411,-4.1025,6.1538,-2.564,18.4614,-7.6924,5.1284,
-44.6155,1.0256,-1.0256,-13.8464,67.6921,15.3845,30.7693,-7.6926,-12.8206,7.1794,-6.1541,17.9485,-15.3845,2.5642,
-49.4873,1.7949,-3.3335,-18.2051,68.4614,18.2051,31.0254,-1.7949,-11.0259,6.4102,-4.3594,12.0513,-12.0513,4.8716,
-53.8462,2.5642,-2.0515,-23.5896,69.7434,19.4871,32.3079,-1.5383,-5.6409,1.5383,-4.1028,5.6409,-7.6921,6.6667,
-54.3589,3.5898,-2.0513,-21.5386,67.1797,16.9233,29.7437,-8.2051,-8.2051,2.0513,-3.5898,8.7183,-7.6924,4.1025,
-52.8203,3.0774,-5.1282,-23.0769,65.1287,13.8464,28.2053,-8.2048,-6.1536,2.0515,-1.0256,7.1799,-6.1536,1.0256,
-53.3333,3.5898,-8.2051,-26.1538,75.3848,21.5386,27.6924,0.5127,-8.2051,-0.51269,-5.1279,9.231,-8.7178,9.231,
-52.0513,4.3589,-4.8716,-24.3589,86.9233,28.4614,32.0513,-2.8203,-10,2.8203,-6.4102,19.7437,-6.4102,13.5898,
-54.6152,3.3333,-2.8206,-22.3079,83.3333,21.7952,32.0515,-11.5383,-11.5383,4.3591,-6.9231,20.7693,-5.8972,2.8206,
-57.6924,7.4358,-4.3591,-19.2307,83.3333,27.4358,30.5129,-2.8206,-11.5383,9.4871,-3.8464,23.3333,-9.4871,2.8206,
-59.2307,4.3591,-5.8972,-25.3845,77.6921,32.5642,30.0002,-2.3079,-11.0256,2.3079,-5.8972,20.2566,-10.5129,7.4358,
-50.5129,10.5127,0.25635,-20.2563,76.1538,33.0767,33.0767,-4.3589,-5.3848,-3.8462,-3.8462,11.5386,-0.25635,13.0767,
-47.9487,10.0002,-1.282,-16.6667,74.1028,28.4617,32.0515,-6.4104,-5.8972,-7.4358,0.25659,-0.25659,0.25659,4.8718,
-53.3335,1.5383,-5.6409,-18.4617,66.6667,29.7434,33.3333,-3.0769,-3.5896,-6.6667,4.6155,2.5642,-0.51294,0.51294,
-62.3076,1.7947,-12.0515,-21.7947,56.6667,26.9231,28.9744,-3.8459,-5.8972,-0.25659,-0.25659,9.4871,0.25659,5.3845,
-64.8716,1.282,-9.4871,-24.8718,53.5901,20.7693,26.4104,-12.051,-8.4612,6.9231,-5.3845,11.5388,-1.282,2.3079,
-55.1284,5.8975,-2.8208,-17.6924,61.7949,28.4614,31.0254,-4.3589,-3.3335,10,0.25635,11.5386,-0.25635,-0.25635,
-56.4104,7.1792,-8.7183,-17.436,58.4614,27.1792,27.6924,-3.0771,-1.0259,0.51269,1.5386,-0.5127,0,0,
-54.6155,10.5127,-5.3848,-17.6924,58.2051,25.3843,30,-4.8721,-0.25635,0.76904,2.8203,-4.8721,0.25635,-1.2822,
-49.2307,16.4102,-1.0254,-13.3335,66.6665,32.3076,34.3589,-1.0254,-2.564,6.6665,5.1284,0.5127,-0.5127,-2.0513,
-51.282,10.7693,-3.0769,-17.9485,59.4875,26.1541,30.7693,-4.615,-4.615,2.5642,1.0256,-1.0256,-1.0256,4.6155,
-50,7.9485,-0.76929,-16.6667,55.6409,24.3586,28.9744,-5.8977,-5.8977,0.76929,-5.3845,1.282,-1.282,8.4617,
-46.6667,13.8462,3.5898,-7.6924,65.1284,30.769,36.4102,-0.5127,-4.1025,0,-1.0254,0,1.5386,-2.564,
-51.282,13.3335,1.5386,-10.769,61.5386,26.6665,38.4614,-2.0513,-1.5386,-7.6924,5.6411,-15,5.6411,-10.2563,
-54.1025,12.5642,-1.282,-15.6409,52.051,27.4358,32.051,-1.282,-2.8206,-2.8206,4.3591,-9.4871,6.9231,1.282,
-56.6667,4.8718,-5.3845,-22.8206,41.7947,24.8718,25.8972,-5.8977,-6.9231,4.3586,-4.8718,5.5129,-2.8206,2.8206,
-54.3591,4.615,-3.0769,-18.4617,43.0769,21.5383,26.1536,-8.2053,-6.1541,8.718,-5.6414,11.7947,-5.6414,3.0769,
-50.5127,7.436,-4.8716,-11.5381,51.5386,22.8208,26.9233,-6.9229,-8.4614,4.3589,-5.3843,5.8975,-4.3589,7.9487,
-40.2566,12.0513,-2.3076,-8.4614,59.2305,28.4614,35.6411,-2.3076,-5.3848,0.25635,-0.76953,1.7949,-0.25635,6.4102,
-41.0254,12.3076,-0.51269,-7.1792,49.7437,29.231,33.3335,-2.564,-5.6406,0,-0.51269,0,0.51318,0.51318,
-47.6921,6.1541,-2.051,-11.7947,37.4358,22.5642,26.6667,-6.1536,-6.1536,-0.51294,-1.5383,1.0256,0.51294,4.1028,
-44.3589,5.3845,-3.3333,-14.1023,50.0002,19.7434,25.3845,-5.8972,-7.9485,1.7947,-1.7947,6.4104,-2.8206,6.9231,
-41.0254,8.2056,-5.6406,-12.3076,61.5386,23.0771,28.2056,-5.1279,-10.769,10.2568,-2.0513,13.3335,-4.1025,2.0513,
-44.6152,5.6409,-5.6409,-16.4104,49.2307,23.0769,31.7952,-6.1536,-5.1282,6.6667,-1.0256,11.282,-2.5642,1.0256,
-43.0769,8.718,-2.5642,-13.8464,48.718,25.1282,28.2048,-1.0256,-1.5383,-1.0256,1.0256,4.1023,-4.1028,11.7947,
-37.9487,11.7949,0,-9.7437,58.9746,28.7178,30.2563,0,-4.6152,-3.0767,0,-5.1279,-1.0254,8.7178,
-36.4104,13.3335,1.0254,-12.3076,55.8975,32.3076,37.436,-2.0513,-4.1025,-2.0513,-0.51269,-5.1284,5.1279,0.5127,
-46.6665,10.2566,-5.1282,-19.9998,43.0769,29.7434,30.7693,-3.0769,-5.1282,0.51294,-3.0769,2.0515,-0.51294,5.6409,
-50.2561,4.1025,-4.1025,-22.0513,38.9746,21.5386,26.1543,-7.6919,-7.6919,4.1025,-7.1792,6.1543,-8.2051,6.1543,
-42.3076,2.8206,-2.8206,-20.7693,40.2566,19.7439,24.3591,-8.4612,-14.1023,5.8977,-8.4612,10.0002,-12.051,3.3337,
-41.7952,3.8462,-7.9487,-23.8462,39.2305,22.3076,24.3589,-7.436,-14.6157,4.3589,-3.8462,10.5127,-10,5.3843,
-46.9231,6.4102,-7.9487,-25.8975,36.6665,16.6665,25.8975,-9.4873,-10.5127,2.8203,-1.7949,6.9229,-6.4102,1.7949,
-42.8206,12.0513,-4.8716,-20.2563,38.7178,17.6924,24.8716,-0.76904,-7.9487,7.436,-1.2822,7.436,-4.8716,0.76904,
-47.1794,3.5898,-6.1538,-23.5898,31.2822,11.7949,20.5127,-1.5386,-11.7949,2.0513,0.5127,6.6665,-8.2051,-0.5127,
-57.6924,-0.76904,-9.4873,-27.9487,21.7949,4.8716,19.231,-10.5127,-15.6411,1.2822,0.76904,13.5898,-10,4.3589,
-58.2051,1.7947,-12.051,-28.4617,19.7434,2.3079,20.7693,-12.051,-10.5129,3.8464,-1.7947,16.6667,-7.9485,4.3591,
-49.2307,2.0513,-8.2051,-27.1797,20.5127,2.564,21.5386,-9.231,-5.1284,2.564,-2.0513,15.3848,-8.2051,2.0513,
-48.4617,1.7949,-7.9487,-27.436,17.6924,3.8462,17.1792,-9.4873,-9.4873,3.3335,-1.7949,19.2305,-12.0513,6.9229,
-49.2307,-1.0256,-8.718,-27.1794,14.3591,2.5642,18.9744,-13.8459,-8.2048,5.1282,1.0256,19.4871,-10.2561,4.6155,
-44.1025,-1.5383,-10.2566,-25.1282,17.4358,5.1282,21.0256,-10.2566,-4.6155,7.1794,1.5383,17.9485,-9.7434,5.6409,
-42.3076,-0.76904,-10.5127,-26.9229,20.2563,6.9233,21.2822,-3.3335,-9.4873,7.436,0.76904,23.3335,-10.5127,18.2051,
-46.1541,-1.0256,-8.718,-32.8206,13.3333,2.5637,20.5125,-7.1799,-14.3591,4.1023,1.0256,21.5383,-12.3079,18.4612,
-48.7178,2.0515,-14.3586,-32.3074,6.1541,1.0256,14.8718,-12.8206,-13.8459,3.0769,-1.0256,16.4104,-15.3845,8.2053,
-41.2822,-0.76929,-12.0515,-30.0002,3.3333,1.7947,17.6921,-12.0515,-5.8977,5.3845,0.76929,15.1282,-9.4871,6.4104,
-36.1538,-1.7949,-4.3589,-27.436,5.3848,3.3335,24.8721,-8.9741,-6.9229,2.3076,1.7949,11.0259,-4.3589,8.9746,
-37.4358,4.6155,-3.5896,-23.0769,6.1541,1.5383,25.6409,-8.718,-8.2048,-1.5383,3.0769,5.6409,-4.1023,7.1794,
-36.1541,5.8972,-2.8206,-20.7693,-1.282,-2.3079,23.3333,-5.8977,1.282,5.3845,8.4612,9.4871,-3.3333,7.9485,
-37.949,3.0767,-3.5898,-21.0259,-7.1797,0,18.4614,-3.0771,0,9.7437,10.769,14.3589,-3.5898,11.2817,
-38.2053,1.282,-1.282,-22.8206,-8.9744,3.8459,19.2307,-7.4358,-7.4358,2.3074,5.3845,10.5129,-5.3845,8.4617,
-30.7693,4.1028,1.0256,-22.5642,-3.5896,5.1282,22.0515,-6.6667,-9.7434,2.0515,-1.0256,12.3079,-9.2307,8.718,
-28.7178,4.6152,0.5127,-22.0513,-2.0513,4.6152,20,-4.6152,-11.2822,3.0767,-0.5127,11.2822,-9.231,8.2051,
-25.6411,8.2051,4.6152,-18.4614,-4.1025,6.1538,23.5898,-6.6665,-8.7178,-3.5898,2.564,4.1025,-2.564,7.6924,
-18.9744,17.949,4.1028,-10.7693,1.5383,14.8718,26.1541,-1.0256,-9.2307,-4.6155,-3.5896,1.0256,-4.6155,9.7439,
-16.1541,16.6667,4.3586,-12.5642,1.282,21.7947,28.9744,3.8459,-8.4617,-1.282,-6.4104,-3.3333,-6.9231,8.9744,
-16.6665,10.5127,10,-13.5898,-5.3848,23.8462,31.5386,0.76904,-3.3335,3.3335,-0.76904,-1.7949,-1.7949,11.5386,
-20.2563,2.8203,3.333,-16.667,-4.3589,16.6665,26.4102,-2.3076,-8.4614,4.8716,-3.8462,2.3076,-3.8462,10,
-20,0,0,-23.5898,5.1284,5.6411,27.6924,-2.564,-13.3335,3.0771,-5.6411,3.0771,-7.6924,4.6152,
-18.718,3.3333,-0.76929,-24.8718,2.3079,10.0002,27.4358,-3.8459,-14.6155,0.76929,-3.3333,2.8206,-9.4871,3.8464,
-14.3589,4.6157,1.0259,-18.9741,-2.0513,21.5386,30.2568,0,-7.1792,-0.5127,0,3.0771,-4.6152,2.5645,
-13.8462,4.6157,3.0771,-18.4614,-1.5381,16.4106,30.2568,1.5386,-5.6406,0,-2.564,0,-2.564,0.51318,
-16.9231,6.1536,1.0256,-20.0002,-8.2053,9.2307,28.2048,-1.0256,-7.1794,8.2048,-3.0769,1.5383,-2.0515,8.2048,
-18.9746,1.0254,1.0254,-19.4873,-17.436,10.769,30.769,-4.6152,-2.564,10.769,-0.5127,0.5127,-1.5386,11.7949,
-21.0256,1.5383,1.5383,-20.5129,-10.2566,12.3079,26.1536,-2.5642,-4.6155,5.6409,-1.5383,2.051,-3.5896,7.6921,
-21.7952,5.8972,-1.282,-21.7952,-3.3333,7.9485,24.3586,-2.8206,-6.9231,5.8972,1.282,5.3845,-3.3333,7.4358,
-18.2051,6.9229,-1.2822,-20.2563,-13.0771,4.3589,29.4873,-3.8462,-4.8716,10.5127,5.8975,0.76904,-0.76904,9.4873,
-17.6921,9.4871,-1.282,-17.1794,-16.1541,7.9485,29.9998,-0.25659,-4.8718,6.9231,5.8972,-2.8206,0.25659,8.4617,
-19.9998,6.1541,-0.51294,-19.4871,-14.8718,5.6409,27.1794,-2.5642,-5.1282,0.51294,4.6155,-1.0256,1.0256,7.1794,
-16.9231,3.0769,-3.5896,-18.4617,-18.4617,-0.51294,24.1023,-5.1282,-7.1794,5.6409,3.0769,3.0769,0.51294,7.6921,
-13.3335,2.564,-5.1284,-16.4102,-20,-3.5898,28.2051,-2.564,-2.0513,6.1538,6.6665,2.0513,2.0513,6.1538,
-7.436,3.8462,-1.7949,-15.6411,-17.6924,-4.3589,33.5898,0.25635,3.3335,-0.25635,10,-2.3076,4.8716,8.4614,
-2.8206,6.4104,-3.3333,-8.9744,-11.0256,-1.7947,26.4104,-0.25659,-2.3079,2.8206,6.4104,2.8206,0.25659,9.9998,
-0.76904,10,0.76904,-3.3335,-5.8975,-0.76904,24.3589,-3.3335,-2.3076,8.4614,5.8975,11.0259,-2.8203,10.5127,
-3.3333,8.4617,3.8464,-6.9231,-6.9231,-3.8459,24.3591,-5.8972,-5.8972,4.3591,3.3333,8.9744,-7.4358,12.0515,
-1.7949,7.9487,1.7949,-6.4102,-5.3843,-3.8462,28.9746,-3.8462,-5.8975,3.3335,4.3589,2.8208,-5.3843,12.0513,
1.5386,11.7949,0,-3.5898,-9.231,-3.0771,31.7949,-3.5898,0,0,7.6924,-3.5898,1.0254,6.1538,
0,13.3335,1.0254,-1.5386,-10.2563,2.564,26.6665,-0.5127,0,-1.5386,10.769,-2.0513,0,10.2563,
-5.1279,4.6157,3.0771,-4.6152,-8.7178,3.5898,26.1538,-2.0513,0,-0.5127,11.7949,-1.0254,0,13.8462,
-8.4617,4.8718,0.76929,-7.4358,-6.9231,3.8459,24.3591,-5.8972,-0.25659,-4.3591,7.949,-7.4358,0.25659,7.4358,
-2.5642,16.4104,2.0515,-1.5383,-2.5642,9.7434,23.5896,0.51294,-0.51294,-3.0769,9.2307,-7.1794,-2.5642,8.2053,
-3.5896,10.2566,4.1028,-5.1282,-1.0256,6.1541,18.4617,1.0256,-6.6663,-2.051,2.5642,-2.051,-12.3074,12.8206,
-11.0259,5.3848,0.76904,-8.9746,0.76904,10,10,-0.25635,-12.0513,-3.3335,-3.3335,0.25635,-15.1284,16.1538,
-8.718,13.3333,3.5896,-7.1794,-3.5896,18.9744,14.8718,1.5383,-8.2048,-2.5642,2.0515,-1.5383,-4.6155,13.3333,
-7.6921,13.3333,4.6155,-6.1541,-14.3591,19.4871,19.9998,1.0256,-6.1541,-1.0256,2.5642,-3.5896,-3.5896,10.7693,
-14.8721,11.2817,-0.5127,-9.7437,-13.3335,23.5898,21.0254,0.5127,-1.5386,2.0513,2.564,-1.5386,-1.0259,17.9487,
-20.5129,11.282,-0.51294,-18.9744,-4.6155,23.5896,19.9998,-3.5896,0.51294,-1.0256,6.1536,-6.1541,1.5383,9.2307,
-15.3845,14.3591,1.5383,-11.7952,0.51294,23.5896,18.4617,-0.51294,-5.1282,-3.5896,10.2561,-7.6921,-0.51294,2.051,
-14.3591,10.2561,1.5383,-8.2053,-4.6155,26.1536,18.9744,-1.5383,-4.1028,-5.6409,10.2561,-8.2053,3.0769,7.1794,
-18.9741,9.231,0,-15.3848,-7.6924,27.6924,14.8721,-6.6665,-1.5386,0,6.6665,-3.0767,1.5386,14.3589,
-22.3076,7.436,-1.2822,-18.2051,-1.2822,21.2822,7.436,-5.8975,-10.5127,6.4102,1.2822,9.4873,-10,21.2822,
-21.7952,3.3333,0.76929,-17.6921,3.3333,17.6921,13.5896,-4.8718,-14.1028,-1.7952,-0.76929,2.3079,-11.0256,15.1282,
-17.436,7.1797,0.5127,-16.4102,10.2563,27.1797,24.1025,-0.5127,-10.2563,-7.6924,2.564,-10.769,-3.5898,4.1025,
-13.5896,9.4871,2.3079,-17.1794,14.6155,26.9231,25.3845,0.25659,-7.9485,-10.5129,4.8718,-19.2307,-0.76929,-0.25659,
-13.3335,12.8203,8.7178,-11.7949,9.7437,19.4873,20.5127,-0.5127,-9.231,-14.3589,1.5386,-26.6665,0,0,
-17.6924,18.7183,8.4614,-6.9229,-0.25635,22.3076,19.231,0.25635,-10.5127,-10,-2.8203,-25.3843,0.76953,1.2822,
-16.6665,13.0771,5.8975,-10,-1.7949,21.2822,23.3335,-2.3076,-4.3589,-3.3335,3.8462,-17.6924,1.7949,1.7949,
-20.5129,5.6409,0.51294,-17.9485,0.51294,11.7952,18.9744,-5.6409,-5.6409,-5.6409,7.6926,-12.3074,-0.51294,2.5642,
-25.3845,10.5125,0.76929,-17.1794,-8.9744,12.5637,18.2048,-3.3333,-4.8718,-0.76929,8.4612,-4.8718,4.3586,11.0256,
-22.0513,11.2817,0,-14.3589,-15.3848,17.9487,17.9487,-3.0771,-5.1284,0,5.1279,-0.5127,1.0254,12.8203,
-14.8716,9.7437,-2.0513,-11.2822,-3.0767,23.0771,17.9487,3.0771,-6.6665,-3.5898,2.0513,2.0513,-2.564,12.8208,
-16.4102,7.1797,0.5127,-8.7178,-9.231,20,18.4614,3.0767,-6.6665,-0.5127,1.5386,-1.5386,-2.0513,17.436,
-19.4871,9.7434,2.051,-5.1282,-22.5642,17.9485,11.282,-2.5642,-8.2053,4.6155,1.0256,-1.0256,-5.6409,24.1023,
-18.7178,11.0259,0.25635,-6.9229,-17.6924,15.6411,9.4873,-2.8203,-4.8716,1.7949,4.8716,-0.25635,-1.7949,15.6411,
-16.1538,8.4614,-0.76953,-11.5386,-10,15.6411,20.2563,0.25635,-0.25635,-2.3076,7.9487,-5.8975,8.4614,2.3076,
-15.6411,11.0254,-3.8462,-11.0259,-11.0259,21.2817,22.3076,1.7949,-1.7949,-2.8208,10,-12.0513,5.8975,5.3843,
-14.3594,10.769,-2.5645,-10.7695,-14.8721,16.4102,19.4868,0,0,-6.667,10.769,-9.231,1.0254,13.8457,
-10.5127,8.9746,1.2822,-8.9741,-14.1025,14.6157,17.1797,-0.25635,-5.3843,-9.4873,4.3589,-1.7949,0.25635,14.1025,
-5.1282,11.2825,5.6414,-1.0256,-6.1536,18.4617,18.9744,-2.5637,-11.7947,-7.6921,2.5642,-3.0769,1.0256,10.7693,
-6.4102,9.4873,5.8975,0.25635,-5.3848,13.0771,19.231,-6.4102,-10,-8.9741,2.3076,-9.4873,-0.25635,7.436,
-8.7178,9.7437,0.51269,-1.5386,-10.769,16.9233,11.7949,2.0513,-7.1792,-5.1279,1.5386,-0.5127,-1.5386,13.3335,
-12.5642,6.9231,-3.3333,-11.0256,-22.3079,19.2307,7.4358,1.7947,-4.3591,-4.8718,1.282,6.4104,-1.282,12.5642,
-14.1023,6.4104,-1.282,-18.2048,-21.282,14.6155,10.5129,-3.8459,-3.8459,1.282,4.3591,11.5388,-1.282,8.4617,
-14.3586,4.6155,-3.0769,-19.9998,-11.282,12.3079,9.7439,-7.6921,-10.7693,4.6155,3.0769,8.718,-5.6409,3.5896,
-9.4873,9.4873,3.8462,-16.6665,-6.9229,19.7437,16.1538,-3.3335,-7.436,-0.25635,8.9746,0.25635,-2.3076,12.0513,
-13.3335,12.3076,3.0767,-19.4873,-15.3848,19.4873,15.8975,0.5127,-5.1284,-6.1538,9.7437,-11.2822,-0.51269,18.9741,
-16.1538,6.9233,1.7949,-20.2563,-19.2305,15.6411,11.5386,-1.7949,-3.333,-7.4355,6.4102,-19.7437,3.8462,7.9487,
-10.5129,9.4871,4.8718,-16.1536,-14.1023,24.3591,7.949,-0.76929,-3.3333,-5.8972,6.9231,-16.1536,7.4358,0.76929,
-11.7949,10.2563,0,-21.5386,-15.8975,24.1025,1.5386,1.5386,-8.7178,-7.1797,1.0254,-10.2563,0,9.2305,
-4.6152,11.2822,4.6152,-15.3848,-10.769,22.0513,8.2051,7.1792,-5.6411,-5.1284,2.0513,-4.1025,-2.0513,24.2305,
-2.3076,10.5127,5.3843,-10,-3.3335,24.8716,10.5127,2.8203,-6.9233,-6.9233,2.3076,-6.4102,-3.8462,25.8975,
-1.7947,13.0769,6.9231,-14.1028,-4.8718,25.8972,13.5896,-1.7947,-0.76929,-4.3591,7.9485,-4.3591,0.76929,10.8975,
-4.1028,13.8459,5.6409,-18.9744,-11.7952,17.4358,10.2561,0.51294,-1.5383,-2.0515,9.7434,-1.5383,2.5642,-0.51294,
-10.5129,11.5383,0.76929,-17.6921,-17.6921,15.1282,5.3845,1.282,-5.3845,-3.3333,6.4104,-2.8206,2.3079,-0.76929,
-11.7947,7.6921,2.5642,-19.9998,-19.9998,21.5383,7.1794,-6.6667,-2.5642,-2.5642,3.5896,-2.5642,2.5642,13.8464,
-9.2307,9.7439,0.51294,-19.4871,-12.3074,23.5896,2.5642,-4.6155,-6.6667,1.0256,-0.51294,6.6667,-5.1282,22.0515,
-7.6921,12.8206,-1.0256,-15.8972,-12.3074,21.5388,1.0256,4.6155,-8.7175,6.1541,-1.0256,15.8977,-9.2307,12.3079,
-7.6921,9.2307,1.0256,-21.5383,-19.9998,17.949,3.5896,-1.0256,-10.7693,1.0256,-5.6409,5.6414,-8.2048,2.0515,
-0.25635,11.5386,5.3843,-20.2563,-8.4614,23.333,8.4614,0.76904,-8.4614,-2.8208,-3.3335,-8.4614,0.25635,11.5386,
1.0256,11.282,4.1023,-18.4617,-6.6667,19.9998,7.1794,4.1023,-5.1282,-8.718,-1.0256,-17.949,-1.0256,12.3079,
-0.25659,14.6155,3.3333,-15.6409,-13.5896,17.1794,5.8972,3.8459,-5.3845,-6.4104,0.25659,-13.0769,-1.7947,12.5642,
0.25635,11.5381,1.7949,-20.2563,-11.5386,16.1538,6.9229,-1.7949,-8.9746,-6.4102,-0.25635,-8.4619,1.7949,10.5127,
5.1284,6.667,2.0513,-19.4873,0,21.0259,8.7183,0,-13.333,-11.7949,-4.6152,-6.6665,-5.6411,3.0771,
3.0769,6.1541,0.51294,-14.3586,-0.51294,23.5901,5.1282,4.6155,-18.4612,-10.7693,-9.2307,-5.6409,-14.3586,5.6414,
1.5383,7.6921,6.6667,-16.4104,-8.2053,12.8206,8.718,1.0256,-8.2053,-4.6155,-1.0256,-5.6409,-3.0769,9.2307,
0.25659,5.8972,5.3845,-18.718,-14.1028,6.9231,6.4104,-4.8718,-5.3845,-6.4104,-0.25659,-6.9231,0.25659,5.8972,
4.3589,9.4873,4.3589,-13.5898,-7.436,18.2051,11.5386,-0.25635,-9.4873,-4.8721,-1.2822,-3.8462,0.25635,15.1279,
8.9744,11.5383,5.8972,-13.5896,-2.3079,17.6921,16.6667,-1.282,-10.5129,-5.3845,1.282,-7.9485,-2.3079,13.0769,
11.2822,12.3076,5.6411,-11.2822,-2.564,13.8462,10.2563,-3.0771,-6.6665,-3.0771,4.6152,-8.7178,-4.1025,2.564,
8.4619,8.4619,5.3848,-12.564,-10.5127,12.5645,6.9233,0.25635,-4.3589,-2.8203,5.3848,-0.25635,-2.8203,-1.7949,
1.5386,3.0767,-2.0513,-22.0513,-21.5386,6.1538,3.5898,0,-12.8208,-9.231,0,3.5898,-10.7695,3.0767,
5.8975,7.9487,-0.25635,-19.231,-19.231,13.0767,7.9487,-0.25635,-7.9487,-6.9233,5.3843,0.25635,-7.9487,18.0767,
7.6924,7.6924,3.5898,-16.9233,-21.5386,17.9487,5.6411,-4.1025,-5.6411,-9.231,4.1025,-11.7949,-3.5898,15.3848,
5.3848,8.4614,0.25635,-13.0771,-23.3335,17.6924,0.76904,1.2817,-12.564,-8.9746,-0.25635,-9.4873,-4.8721,2.8203,
8.2051,9.7437,-0.5127,-13.333,-23.0767,15.3848,6.1538,0.51269,-9.2305,-7.1792,1.0259,-5.6411,-5.1279,4.1025,
12.8206,11.282,1.5383,-15.8977,-15.8977,13.8459,9.7434,-0.51294,-6.1541,-5.6409,0.51294,-4.6155,-3.5896,12.3079,
9.4873,8.4614,-1.7949,-16.6665,-13.0767,12.564,3.8462,3.3335,-12.0513,-7.436,-2.8203,1.7949,-9.4873,11.5386,
8.9746,2.8208,-1.7949,-16.1538,-15.1279,14.6157,3.3335,0.25635,-11.5381,-4.8716,-0.25635,4.8721,-10,10,
6.4104,4.3591,-3.8459,-20.2561,-17.6921,15.1282,4.3591,-1.282,-8.9744,-1.282,1.282,4.3591,-4.3586,12.0515,
2.8206,3.3333,-6.9231,-25.3845,-24.3591,4.8718,3.8459,-1.7947,-7.4358,-3.3333,1.7947,3.8459,-2.8206,6.9231,
5.1282,2.051,-5.1282,-24.6155,-22.5642,4.1028,1.0256,-1.0256,-8.718,-2.5642,2.051,2.051,-7.6921,3.0769,
5.6411,4.6152,-5.6411,-22.0513,-14.3589,11.2822,0,2.564,-9.7437,-1.5386,1.0254,0,-8.7178,4.6152,
5.6409,3.5896,-2.5642,-21.0256,-16.9231,12.3079,5.6409,2.5642,-5.1282,-5.6409,4.6155,-4.6155,-4.1023,10.7693,
9.4873,4.8721,-1.7949,-20.769,-24.3589,13.0771,4.3589,1.7949,-5.3843,-3.8462,5.3848,-4.8716,-3.333,14.6157,
12.5642,5.3845,-6.9231,-22.8206,-24.3591,11.5383,2.8206,2.3079,-6.4104,-0.76929,0.76929,-0.76929,-2.8206,6.9231,
10.5127,2.3076,-12.0513,-25.3848,-23.8462,10,2.3076,3.3335,-6.9233,-3.3335,-2.3076,5.3848,-5.3848,3.3335,
9.4871,3.3333,-12.0515,-24.8718,-24.8718,11.5383,0.76929,4.3591,-8.4617,-5.8977,-0.76929,6.4104,-6.9231,11.0256,
18.2048,7.9485,-2.8206,-21.282,-21.7952,9.4871,7.4358,6.4099,-4.3591,-7.949,2.8206,-5.8977,-2.8206,12.051,
19.4871,7.6921,-1.5383,-20.5129,-14.8718,10.2566,6.6667,3.5896,-8.2053,-14.3591,1.5383,-18.9744,-5.1282,5.6409,
20.2563,5.8975,-0.25635,-19.231,-6.9229,14.1025,10.5127,0.25635,-9.4873,-10.5127,4.3589,-14.6152,-5.8975,4.8716,
21.282,6.4104,0.76929,-17.1794,-7.4358,11.0256,11.5383,4.8718,-8.4617,-4.3591,-0.76929,-3.8459,-6.9231,5.8977,
18.2053,7.4358,-3.8459,-16.6667,-9.9998,13.5901,3.8464,8.9744,-6.4099,-3.3333,-3.8459,3.3333,-5.3845,17.6926,
13.8462,0,-6.6665,-21.5386,-13.3335,13.3335,1.0254,1.5386,-7.1797,-7.6924,0,1.5386,-4.6152,18.4614,
18.2051,3.3335,-5.3848,-16.6665,-12.0513,11.0254,4.8716,0.25635,-13.0771,-1.7949,-0.25635,4.3589,-8.9746,7.436,
17.1792,7.436,-5.8975,-15.6411,-14.6152,6.4102,2.8203,-1.2822,-14.1025,1.2822,-4.8721,3.3335,-13.5898,3.8462,
18.4614,6.6665,-1.0259,-17.436,-11.2822,9.231,2.0513,0,-7.6924,-1.5386,0,4.1025,-6.6665,12.3076,
21.0259,5.6411,-3.0767,-15.8975,-9.7437,15.8975,0,4.1025,-9.7437,-7.6924,2.0513,0,-6.6665,11.7949,
22.3076,8.9746,-1.7949,-10,-16.1538,16.1538,6.4102,1.7949,-7.436,-11.0254,4.3589,-11.0254,-3.8462,8.9746,
18.4614,10.769,-1.5386,-7.6924,-16.9233,12.3076,6.6665,1.5386,-5.1284,-8.7178,3.5898,-9.7437,-2.0513,12.8203,
16.1541,6.4104,-4.3586,-8.4612,-14.1023,8.4617,4.3591,2.3079,-5.3845,-5.8972,1.282,-1.282,-3.3333,6.9231,
18.9744,7.1794,-1.5383,-8.2053,-21.5383,10.2566,5.1282,0.51294,-6.1541,-4.6155,2.051,-0.51294,-3.5896,2.5642,
16.4104,10.2566,-1.5383,-8.2053,-25.1282,12.3079,0.51294,1.5383,-8.2053,0.51294,-0.51294,-0.51294,-4.6155,13.3333,
13.3335,2.5645,0,-10.769,-20.5127,13.8462,-1.5386,2.5645,-8.2051,3.5898,-3.0767,0,-6.1538,18.4614,
16.9229,5.1284,3.0771,-9.231,-13.8462,20,-2.0513,0.5127,-9.231,-0.5127,-3.5898,4.1025,-10.2563,20.5127,
20.5127,11.7949,0.5127,-8.7178,-5.1279,19.4873,-1.5386,0.5127,-9.2305,-7.6924,-0.51269,2.0513,-10.2563,13.3335,
16.9233,9.231,-0.51269,-11.2817,0,16.4102,4.1025,2.5645,-6.1538,-8.7178,0,-7.6924,-3.5898,2.5645,
11.0259,8.9746,-2.8203,-11.0254,-12.0513,21.7949,0.76904,4.8721,-8.4614,2.3076,-0.76904,-2.8203,-1.7949,17.5645,
7.436,5.3848,-6.4102,-13.0767,-25.3848,19.7437,-5.8975,-0.25635,-9.4873,5.8975,0.25635,3.8462,-6.9229,26.4102,
13.0769,8.4617,-3.3333,-5.3845,-10.3848,21.282,1.282,-0.25659,-7.4358,-0.25659,1.282,0.25659,-5.3845,11.4102,
14.3589,13.3335,3.0767,-0.5127,4.6152,23.0767,9.231,-1.0259,-6.6665,-9.7437,0.5127,-14.3589,-2.0513,-0.5127,
9.2307,7.6921,1.0256,-9.2307,10.2561,17.4358,1.5383,-9.2307,-7.6926,-17.4358,-1.0256,-23.0769,-8.2053,10.7693,
11.0256,10.5129,-4.3591,-10.5129,10.5129,23.3333,1.7947,-1.7947,-2.8206,-6.9231,6.4104,-10.5129,-4.3591,19.2307,
4.3591,7.4358,-12.5642,-20.2566,11.5383,23.3333,7.4358,-1.7947,-2.3079,-5.8972,7.4358,-13.5896,0.76929,4.2307,
4.3589,6.9229,-7.9487,-21.7949,13.5898,24.3589,7.436,-2.8203,-1.2822,-7.436,7.436,-16.1538,-0.76904,0.76904,
6.6665,6.1538,-4.6152,-14.8721,8.2051,22.0513,0.5127,-0.5127,-4.1025,-9.7437,7.1797,-12.3076,-9.231,13.8462,
5.8975,2.3076,-4.3589,-15.6411,3.3335,15.6411,0.76904,-0.76904,-7.9487,-12.0513,3.8462,-12.0513,-10.5127,5.8975,
3.8462,4.8716,-5.3848,-15.6411,10.5127,18.2051,-1.2822,2.8203,-11.0259,-3.3335,1.2822,-4.3589,-9.4873,5.8975,
-0.5127,7.6924,-7.6924,-18.4614,8.2051,18.4614,-2.5645,-2.5645,-12.3076,0.5127,1.0254,0.5127,-11.2822,15.3843,
1.282,9.4875,-3.3333,-16.1536,4.8718,20.2566,4.3591,-4.8718,-11.0256,-1.282,4.8718,-6.9231,-8.4612,13.0769,
-0.76929,4.3591,-5.8977,-13.0769,8.9744,20.7693,1.7947,0.76929,-13.0769,-3.8464,1.7947,-11.5383,-6.9231,4.8718,
-1.0256,3.5896,-6.6667,-16.9231,9.2307,17.4358,1.0256,3.5896,-5.6409,-4.1023,4.6155,-9.2307,-5.1282,8.2053,
0.76929,9.4871,-4.8718,-19.7434,3.3333,20.2566,5.3845,-0.76929,-1.7947,-2.8206,7.949,-16.6667,-3.8459,15.6414,
2.8206,6.4104,-4.8718,-17.6921,3.8464,22.3079,8.9744,-8.4612,-4.3586,-5.8972,4.3591,-20.2561,-2.8206,11.0256,
8.2053,6.1541,-2.5637,-13.8459,13.3337,21.5388,5.6414,-6.6663,-4.1023,-5.1282,3.5901,-10.2561,-1.0256,1.0256,
8.9744,8.9744,-3.3333,-15.6409,15.1282,23.8459,2.3079,-2.3079,-4.8718,-3.8459,3.8459,-11.0256,-2.3079,3.3333,
4.1028,4.1028,-3.0769,-24.6155,6.6667,18.9744,6.6667,-8.718,-5.1282,-11.7947,2.5642,-25.1282,-2.5642,12.8206,
6.1538,2.564,-4.6152,-20,9.7437,13.8462,5.1284,-7.6924,-9.2305,-19.4873,2.0513,-30.769,-2.0513,8.7183,
12.564,5.8975,-5.8975,-12.564,17.1792,19.2305,0.25635,0.76904,-10,-21.7949,1.2817,-32.564,-0.25635,-2.3076,
12.8203,10.2563,-2.564,-15.3848,15.3848,24.6152,-0.5127,0.5127,-3.0771,-16.9233,1.0254,-28.2051,-0.5127,3.0767,
14.1023,14.6155,-4.3591,-16.6667,30.3848,23.8459,2.8206,-1.282,-1.7952,-14.1028,1.282,-20.2566,-3.8464,14.1023,
27.4363,12.5642,-3.8459,-13.0769,45.3848,27.949,9.4875,1.282,-8.9744,-17.1794,-1.282,-24.8718,-6.4099,9.4875,
37.6924,17.6924,3.3335,-10,60.3848,35.6411,8.4614,3.3335,-15.1284,-17.6924,-9.4873,-28.9746,-7.9487,-3.3335,
52.6924,32.3079,15.3845,-1.5383,75.3848,40.5129,11.7947,1.5383,-8.718,-13.3333,-6.1541,-25.6409,-3.5896,-3.5896,
67.6924,34.8716,14.3589,-0.5127,90.3848,46.1538,15.3848,0.5127,-16.4102,-18.4614,-10.769,-29.7437,-13.3335,-1.5386,
78.4614,35.3848,4.1025,-4.6152,105.3848,54.3589,16.9229,7.1792,-31.4102,-28.2051,-25.769,-37.9487,-26.6665,-4.1025,
76.6667,37.1794,8.4612,-5.8977,120.3848,51.0256,25.3845,4.8718,-25.8977,-32.5642,-24.8718,-46.4104,-14.1028,-4.8718,
88.718,44.1028,17.4358,-1.0256,135.3848,52.8206,28.2053,-1.5383,-11.282,-26.1536,-10.2561,-45.1282,-1.0256,1.0256,
85.3848,42.8203,21.2822,-1.7949,150.3848,58.7178,18.2051,1.7949,-10,-20.769,-6.4102,-37.6924,-4.8716,-4.3589,
70.3848,31.0254,20.2563,-5.3848,135.3848,45.8975,12.564,5.3848,-17.1797,-22.3076,-13.5898,-36.6665,-9.4873,-14.6152,
56.6667,26.4104,9.4871,-7.949,120.3848,34.6155,10.5129,1.282,-23.3333,-19.7434,-13.5896,-28.4617,-11.0256,-1.282,
48.7183,21.0259,8.2051,-13.333,105.3848,32.8208,4.1025,-4.1025,-18.9741,-18.9741,-8.2051,-20,-12.3076,8.7183,
35.3848,13.8462,11.7949,-12.3076,90.3848,34.8716,-0.5127,0.5127,-16.9229,-21.5386,-10.769,-23.0771,-12.8203,4.6152,
31.0259,11.0259,3.3335,-14.1025,79.231,37.1797,-2.3076,2.3076,-16.6665,-18.2051,-10,-31.5386,-8.4614,2.8208,
28.718,13.8459,2.051,-18.9744,64.231,34.8718,-5.1282,-1.5388,-7.6926,-16.9231,-1.0256,-35.3848,1.0256,5.6409,
14.6152,11.0254,2.8203,-19.231,49.231,28.4614,-14.1025,-3.3335,-6.9229,-20.769,-2.8203,-38.718,3.8462,3.3335,
11.0256,6.9231,4.3591,-14.1023,34.231,24.3591,-12.051,3.8464,-3.8459,-13.0769,-2.8206,-36.6665,2.8206,-2.8206,
9.4868,4.3589,6.9229,-13.0771,19.231,22.3076,-17.1797,4.3589,-0.76953,-3.8462,0.25635,-28.9746,-1.2822,-0.25635,
0.25635,2.3076,11.5386,-14.6152,4.231,20.2563,-32.1797,-2.3076,-0.25635,-4.3589,3.3335,-26.4102,3.3335,10,
2.0513,-3.0771,11.2822,-16.9229,-10.769,19.4873,-36.4102,-2.0513,2.564,-9.7437,4.1025,-30.2563,11.7949,6.1538,
5.8972,-7.949,0.25659,-19.2307,1.7947,22.8206,-46.4102,0.76929,-1.282,-14.1028,-0.25659,-27.9487,4.3591,1.282,
7.6924,-9.7437,2.564,-15.3848,0,25.1284,-49.2307,-1.5386,0,-12.3076,3.0771,-20.5127,1.5386,8.2051,
11.282,-9.7434,12.3079,-9.2307,-1.5383,23.0769,-43.5896,0.51294,-0.51294,-3.5896,4.1028,-11.7947,3.0769,14.8718,
8.4614,-14.1025,6.9229,-7.9487,8.4614,17.6924,-57.6924,4.8716,-11.0259,4.3589,-4.3589,-4.8721,-4.3589,17.6924,
7.9487,-13.0767,7.9487,-10.5127,-6.5386,23.8462,-61.7949,3.8462,-8.4614,4.8721,-3.3335,2.3076,-2.3076,28.4614,
7.6924,-8.2051,12.8203,-15.8975,-21.5386,30.769,-63.0769,3.5898,-4.1025,-0.5127,2.0513,0.5127,-0.5127,23.5898,
7.436,-10.5127,11.0259,-16.6665,-36.5386,15.769,-68.9744,4.3589,-0.25635,-3.333,4.8721,-10.5127,0.25635,8.9746,
6.4102,-13.0771,10.5127,-11.0259,-51.5386,0.76904,-64.3589,0.25635,3.8462,-0.25635,4.8716,-10.5127,6.4102,13.5898,
-1.282,-12.5642,6.4099,-16.1541,-66.5386,2.3074,-54.6155,-2.3079,4.8718,1.282,3.8459,-10.0002,9.4871,14.615,
-2.8203,-13.0767,4.8721,-25.8975,-54.1025,7.436,-54.6152,1.7949,8.9746,-1.7949,7.9487,-20.7693,11.5386,5.8975,
-2.5642,-10.7693,2.5642,-23.0769,-39.1025,8.2053,-69.6152,3.5896,5.6409,-6.6667,7.1794,-27.6924,9.7434,6.6667,
-3.3333,-7.4358,4.8718,-12.5642,-45.8975,11.5383,-67.4358,3.3333,4.8718,-4.8718,5.3845,-17.6921,8.9744,6.9231,
-6.4104,-8.9744,6.9231,-12.0515,-60.7693,6.9231,-63.8462,1.7947,7.4358,-1.7947,5.3845,-7.949,5.3845,2.8206,
-11.0259,-12.0513,1.2817,-17.1797,-59.231,-0.25635,-78.8462,0.25635,6.9229,1.2817,5.8975,-9.4873,4.3589,10.5127,
-9.4875,-14.1028,2.8206,-19.2307,-47.436,1.7947,-78.2053,-0.76929,7.4358,0.76929,6.4099,-14.1028,8.9744,20.7693,
-6.9231,-8.9744,5.3845,-18.2053,-33.0771,5.3845,-70.0002,1.282,3.3333,-1.282,2.8206,-9.4875,6.4099,17.1794,
-5.3845,-7.4358,8.9744,-13.5896,-36.1538,7.4358,-71.5383,4.8718,1.282,-0.76929,0.76929,-0.76929,4.3591,13.5896,
-0.76904,-13.5898,16.6665,-6.9229,-49.4871,6.4102,-76.6667,6.9229,0.25635,0.76904,-2.3076,1.7949,-0.25635,19.7437,
5.3845,-12.5642,11.0256,-4.3591,-34.4871,5.8977,-77.6924,7.4358,-6.4104,3.8459,-3.8459,3.8459,-6.4104,31.0256,
0.25659,-14.1023,-1.7947,-16.1536,-19.4871,3.8464,-79.7437,4.3591,-7.4358,3.3333,-0.25659,4.3591,-6.9231,22.3079,
-8.718,-11.7952,-1.0256,-20.0002,-12.8206,3.0769,-76.9233,9.7434,1.0256,6.1536,5.6409,9.2307,-2.5642,10.7693,
-11.7949,-12.8208,4.6152,-18.4614,-27.8206,-2.564,-74.3591,11.7949,3.0767,2.0513,5.6411,9.2305,-2.0513,14.8716,
-3.0771,-14.8721,7.1792,-17.436,-42.8206,-4.6157,-80.0002,7.6919,2.564,0,2.564,0,2.564,16.9229,
0,-14.8716,0.51318,-14.3589,-47.6921,2.0513,-82.051,10.2568,0,4.6157,-2.564,-3.0767,1.0259,13.3335,
-4.8716,-16.6665,1.2822,-16.1538,-48.4614,3.8462,-72.0513,9.4873,0.25635,6.9229,-1.2822,2.3076,-0.25635,21.2822,
-4.8716,-14.1025,5.8975,-15.6411,-59.2307,0.25635,-72.564,-0.25635,-2.3076,1.7949,0.25635,0.25635,1.2822,24.3589,
0,-7.6924,5.1284,-10.769,-57.4358,-1.0254,-75.3845,2.5645,0.51318,0,3.5898,-4.1025,5.1284,13.3335,
-2.3076,-12.564,3.3335,-13.5898,-62.8206,-2.3076,-72.5642,5.8975,3.8462,2.3076,4.3589,-2.8203,4.3589,10,
-7.1797,-15.8975,2.0513,-15.3848,-76.4104,-1.5386,-74.3591,6.6665,-1.5386,5.6411,2.0513,3.5898,1.5386,25,
-6.6665,-12.8208,4.1025,-14.8721,-72.3079,-2.0513,-75.3848,6.6665,-2.0513,2.564,4.6152,4.1025,2.0513,31.7949,
-4.1025,-8.2051,5.6411,-12.8208,-58.4617,0.5127,-75.8975,9.2305,-1.0259,-0.51269,4.1025,1.0254,0.5127,28.2051,
-1.7947,-7.4358,7.4358,-5.8972,-67.9487,1.7947,-70,12.051,-4.3591,3.3333,0.25659,0.76929,-0.25659,25.3845,
4.1025,-10.2563,15.3848,-1.5386,-80.5129,0,-57.436,10.2563,-1.0259,1.0254,0.51269,-1.5386,0,20.5127,
3.0769,-11.282,12.8206,-7.6926,-68.2053,1.5383,-63.0769,8.2048,-0.51294,-7.1794,1.0256,-9.2307,0.51294,12.3074,
0.76929,-12.5642,6.4104,-16.6667,-58.718,-0.25659,-65.8975,4.3591,0.25659,-8.9744,2.8206,-12.0515,4.3591,18.2053,
3.3333,-9.9998,7.949,-15.6409,-73.718,-2.3074,-55.6409,1.282,1.282,-2.3074,7.4358,-1.282,4.3591,33.0769,
-1.0256,-9.2307,7.1794,-14.8718,-88.718,-2.5642,-62.564,5.1282,-1.0256,1.0256,5.6409,9.2307,2.5642,24.6155,
-4.3589,-14.1025,4.8716,-19.7437,-78.2051,-5.3848,-75.6411,6.9229,-0.25635,0.25635,1.7949,10,1.7949,10,
-5.1282,-12.3079,5.1282,-20.0002,-63.2051,-5.1282,-72.8206,5.1282,0.51294,9.7434,1.0256,13.3333,-0.51294,23.0769,
-9.4873,-11.0254,7.436,-14.6152,-78.2051,-10.5127,-68.4614,-0.25635,1.7949,17.1797,0.25635,18.7183,1.2822,37.1797,
-5.1279,-10.2563,7.1797,-13.8462,-93.2051,-18.4614,-72.8206,3.0771,0,14.8721,0,22.0513,7.1797,29.7437,
1.7947,-11.0256,-1.7947,-18.2053,-87.4358,-12.0515,-73.5898,8.9744,-0.76929,6.9231,0.76929,19.7434,5.3845,23.8459,
-1.282,-16.6667,-3.8459,-20.2566,-87.4358,-10.0002,-65.3845,3.3333,3.3333,2.3079,1.282,9.9998,1.7947,28.4617,
-8.7183,-11.7949,0,-16.4102,-98.9744,-15.8975,-69.231,2.0513,0,8.2051,1.0254,15.8975,1.5386,32.8203,
-10.0002,-6.9231,1.282,-17.6921,-103.8462,-16.6667,-72.0513,2.3079,-1.282,13.0769,3.8459,22.3079,6.4104,27.4358,
-6.1541,-7.1794,3.5896,-20.5129,-96.9231,-13.8464,-65.6411,-1.0256,1.0256,10.2561,4.6155,11.7947,8.2048,23.0769,
-1.0256,-4.6155,7.1794,-17.9485,-81.9231,-10.2566,-64.1025,4.6155,-1.5383,7.6921,1.0256,6.6667,2.0515,23.5896,
1.282,-0.25659,10.5129,-17.6921,-76.6667,-9.4871,-60.2563,10.5129,-2.3079,2.8206,-0.25659,10.5129,0.25659,18.718,
-1.5386,1.0259,7.1797,-17.436,-84.1025,-10.769,-56.9231,9.231,-0.5127,-1.5386,0.5127,6.1538,3.0771,22.0513,
-3.8462,-0.25635,5.8975,-20.769,-91.5383,-8.9741,-57.6921,4.3589,4.8721,0.25635,3.3335,-0.25635,7.9487,26.4102,
-7.9487,-3.8462,3.8462,-32.5642,-99.7437,-10.5132,-68.9746,1.7949,2.8203,-0.25635,0.25635,3.333,5.3843,12.564,
-12.564,-3.3335,1.2822,-30.5129,-102.8206,-11.0259,-71.0256,6.4102,-0.25635,6.4102,0.25635,18.2051,2.8203,20.769,
-17.9487,-5.1284,-1.5386,-28.718,-106.1538,-8.2051,-61.0256,2.0513,1.5386,3.5898,1.5386,17.9487,3.5898,35.769,
-15.8975,-0.51269,-3.5898,-29.7437,-98.4614,3.0771,-63.0769,1.0259,2.564,-1.5386,0.5127,12.8203,6.1538,32.8203,
-13.8462,0,-4.6152,-30.2563,-98.9744,3.5898,-70.2563,2.0513,1.5386,0,-2.564,10.2563,5.1284,22.564,
-13.3333,-4.1023,1.0256,-29.2307,-105.6409,-4.6155,-58.9744,1.5383,1.0256,1.0256,-1.0256,12.3079,2.5642,28.2053,
-16.1538,-2.3076,1.7949,-26.4104,-106.4104,-5.3848,-55.6411,2.3076,-1.7949,2.3076,2.3076,14.1025,2.8203,24.3589,
-21.7949,-6.4102,-1.7949,-28.4614,-117.6921,-12.564,-65.8975,1.7949,3.8462,5.3848,6.9233,5.8975,10.5127,13.5898,
-23.8462,-8.9746,-3.3335,-30.5129,-123.3335,-15.6411,-63.8462,4.3589,8.4614,6.4102,7.436,3.3335,12.564,19.2305,
-17.1794,-2.3079,-5.3845,-29.4871,-117.6921,-7.9485,-53.0769,3.8464,2.3079,3.8464,2.3079,13.0769,7.4358,25.8977,
-9.231,1.5386,-0.51269,-28.718,-118.4614,-3.0767,-53.3333,0.5127,-3.0767,3.5898,0.5127,17.9487,5.6411,24.6152,
-11.5386,0.25635,4.8716,-24.8716,-111.5386,-0.76904,-60.7693,4.8716,-4.3589,6.4102,-0.25635,18.7178,3.8462,26.4102,
-13.8459,-0.51294,6.6667,-23.0769,-101.0256,-5.6409,-53.3333,6.6667,0.51294,8.718,-2.051,17.4358,2.5642,22.0515,
-13.5898,-0.25635,3.8462,-22.8203,-113.5896,-10,-48.4614,0.76953,0.25635,7.9487,-4.8716,15.1284,1.2822,10.5127,
-14.1028,-0.76929,1.282,-21.282,-118.718,-4.3591,-50.0002,5.8972,-1.7952,5.3845,0.76929,21.282,3.8459,18.2048,
-14.1028,-4.8718,1.7947,-22.3079,-104.3591,-5.8977,-48.9746,11.5383,-1.282,4.8718,3.3333,27.4358,1.282,28.9744,
-13.0769,0.25659,0.76929,-19.2307,-97.6924,-6.4104,-47.9487,13.5896,-3.3333,11.5383,0.25659,28.4617,-0.25659,25.3845,
-19.7437,0.25635,-0.25635,-19.7437,-112.6924,-4.8716,-48.4614,8.9746,-1.7949,8.4614,0.76953,20.7695,4.8721,18.7183,
-22.5642,-4.1028,1.5383,-23.0769,-127.6924,-8.2053,-52.3076,5.1282,1.0256,-1.0256,4.6155,12.3079,6.1541,18.4617,
-16.6665,-0.76904,-0.25635,-24.8718,-123.8462,-13.0771,-50.5129,5.8975,0.25635,1.2822,8.4614,4.3589,5.8975,13.5898,
-13.0771,2.3076,-0.25635,-23.3335,-108.8462,-14.6157,-44.3591,1.7949,-0.25635,2.3076,4.3589,0.25635,6.4102,4.8716,
-14.8721,1.0254,0,-17.436,-100.5129,-12.8208,-47.1797,4.6152,0,0.5127,-1.5386,10.769,2.564,12.8203,
-21.7949,-4.3589,0.76904,-16.1538,-112.0513,-18.2051,-49.4873,7.436,-0.76904,1.7949,4.3589,16.6665,0.76904,20.2563,
-21.282,-2.8206,5.3845,-14.1023,-114.6152,-18.718,-41.282,3.3333,-2.8206,5.3845,12.0515,16.6667,2.8206,16.6667,
-11.7949,-0.5127,5.6411,-11.7949,-114.8718,-14.3589,-39.4871,0.5127,-5.6411,4.6152,5.6411,15.8975,2.0513,13.3335,
-1.5383,-1.5383,9.7434,-9.2307,-112.8206,-12.8206,-35.3848,7.1794,-2.5642,1.5383,2.5642,7.6921,2.051,13.3333,
-2.3076,2.8203,10.5127,-8.9746,-97.8206,-15.6411,-31.0256,12.0513,-4.3589,-1.2822,8.9741,1.2822,1.7949,15.6411,
-6.9231,3.8459,4.3586,-10.0002,-82.8206,-16.6667,-37.1797,6.4099,-4.8718,-0.76929,9.9998,8.4612,0.76929,14.6155,
-1.5383,1.0256,6.1536,-4.1028,-93.8462,-6.6667,-44.6155,10.2561,-1.5383,8.718,5.1282,19.4871,-1.0256,18.9744,
-2.564,0,5.6411,-4.1025,-105.1279,0,-42.564,14.3594,-5.1279,12.3081,0.51318,16.4106,-2.564,30.2563,
-11.7947,-3.0769,4.6155,-16.9231,-111.7949,-10.2566,-33.8462,5.1282,-5.1282,8.2053,3.0769,12.3079,3.5896,31.282,
-16.4104,-3.0769,4.1028,-17.9485,-120.5127,-18.9744,-37.9487,3.0769,-4.1023,11.282,4.1028,18.9744,5.6409,27.1794,
-11.5386,0.25635,5.8975,-5.8975,-118.7178,-12.564,-40.769,11.5386,-3.8462,16.1538,5.8975,23.8462,-0.25635,28.9746,
-6.1536,1.5383,10.2566,-1.5383,-113.3333,-4.1023,-37.9487,14.3591,-3.5896,12.8206,7.6921,23.0769,-4.1023,29.7434,
-6.9229,1.2822,8.4614,-3.3335,-113.5898,-1.2822,-42.3076,12.564,-6.4102,13.5898,2.8203,28.9741,-1.7949,31.5386,
-5.6411,0,6.1538,-4.1025,-107.6924,-5.1284,-40,10.769,-6.1538,16.4102,2.0513,35.8975,0,31.7949,
-4.3591,1.7947,5.8972,-2.8206,-107.9487,-3.8459,-37.6924,15.1282,-3.8459,16.6667,7.9485,33.0769,-1.7947,31.5383,
-8.7183,0,5.6411,-7.1797,-118.4617,0,-40.5129,15.8975,-1.5386,13.8462,7.6924,23.0767,0,32.8203,
-6.1538,-2.0513,8.7178,-12.8203,-108.2051,-7.1797,-36.4102,8.2051,-3.0767,5.1284,2.564,12.8203,2.0513,27.6924,
-1.0256,1.5383,9.7434,-9.2312,-93.2051,-9.2312,-35.8977,2.5637,-8.2053,1.0256,5.6409,3.0769,-1.0256,19.4871,
1.0256,2.051,13.8459,-3.5901,-86.667,-6.6667,-32.8208,2.051,-6.1541,-1.0256,8.7175,-5.1282,2.051,12.3074,
0.76929,1.7952,13.5901,-0.76929,-94.6152,-8.9744,-26.9231,7.4358,-5.3845,-2.8206,1.282,-0.76929,1.282,14.6155,
-0.76904,0.76904,10,-1.2822,-104.8718,-11.5386,-24.3589,13.5898,-2.3076,5.8975,5.3848,14.2307,-1.7949,29.6155,
-7.4358,-5.3845,5.3845,-11.5383,-110,-16.6667,-30.5129,12.051,-0.25659,13.0769,9.4871,21.7947,0.25659,33.5896,
-9.2307,-4.6155,3.0769,-15.3845,-95.8975,-11.282,-33.3335,13.8459,-3.0769,16.4104,3.5896,33.3333,3.5896,27.6921,
-3.0771,-4.6152,8.7178,-12.3076,-91.2822,-7.6924,-24.1025,11.7949,-2.564,17.436,2.564,41.0254,2.564,30.769,
-2.0513,-5.1284,10.2563,-12.8208,-92.8208,-9.7437,-21.5386,4.1025,-2.0513,15.8975,7.6919,32.8203,2.0513,36.4102,
-4.8716,-2.3076,2.8208,-22.3076,-81.7947,-11.5386,-26.4102,2.3076,-3.3335,8.9746,6.4102,19.7437,4.3589,22.8208,
0,-1.5386,5.1284,-28.2051,-73.3333,-12.3076,-24.1025,0,-2.0513,1.0259,5.6411,5.6411,3.5898,11.2822,
5.3845,2.8206,12.051,-17.6926,-72.5642,-6.4104,-20.7693,2.3074,-3.3333,0.76929,9.9998,-1.7952,-0.76929,23.8459,
3.0771,3.0771,11.7949,-14.3589,-79.4871,-5.1279,-20.5127,7.1797,-6.1538,-1.0254,11.2822,0,0,18.9746,
1.282,-2.3079,7.4358,-20.2566,-91.0256,-4.8718,-25.3845,10.5129,-10.0002,3.3333,3.3333,12.0515,-1.282,8.4617,
5.6414,-2.051,6.6667,-15.8972,-89.2307,1.0256,-24.615,16.4104,-8.718,18.3333,-2.051,26.1541,-1.0256,23.4617,
2.564,-5.1279,4.6152,-22.564,-90.7693,-4.6152,-20.5127,7.6924,-6.6665,12.3076,2.564,18.9746,-2.564,33.3335,
1.0256,-3.5896,3.0769,-30.2563,-89.7434,-10.2561,-20.5125,2.5642,-4.1023,3.5901,11.7952,16.9231,-1.0256,18.3335,
2.564,-5.1284,4.6152,-26.6665,-87.1794,-11.7949,-23.0771,5.6411,-6.1538,2.0513,6.6665,15.3848,-2.0513,10.769,
11.5383,-0.25659,18.2053,-14.6155,-87.4358,-3.3333,-17.6921,13.5896,-5.8972,4.3591,0.25659,12.0515,-1.7947,18.718,
14.8718,2.051,21.0256,-12.8206,-88.718,-1.0256,-15.8977,13.8459,-7.1794,0.51294,-0.51294,3.5896,-1.0256,23.0769,
20,0.5127,18.9746,-14.8716,-79.4871,-3.5898,-16.9229,14.8716,-2.0513,-0.5127,4.6152,-3.5898,3.5898,18.4614,
17.949,3.0769,10.7693,-17.4358,-77.4358,-5.6409,-25.6409,13.8464,-6.6667,1.0256,1.5383,-1.0256,-2.5642,7.6921,
10.7695,2.564,5.6411,-20.5127,-84.6152,-4.1025,-21.5386,9.231,-9.2305,-1.5386,1.5386,6.6665,-3.5898,14.3589,
8.9741,-1.7949,6.4102,-20.2563,-89.4873,-0.76953,-12.0513,12.0513,-5.3848,-0.25635,4.8716,12.564,0.25635,29.3589,
5.6411,-6.1538,1.5386,-22.0513,-95.3848,-1.5386,-20.5127,14.8716,-7.6924,6.6665,3.0767,17.436,-5.6411,24.6152,
7.9487,-7.436,4.8716,-23.3335,-96.1541,-4.3589,-22.8208,12.0513,-4.3589,11.0254,4.3589,26.9229,-4.3589,30,
13.0769,-2.3079,8.4617,-19.2307,-85.3845,-4.8718,-19.2307,10.0002,-7.4358,8.9744,2.3079,32.0515,-3.8459,43.3333,
12.0513,0.25635,4.8716,-20.2563,-73.0769,-4.8716,-20.769,9.4873,-14.1025,10,-0.25635,21.2822,-6.9229,28.3333,
8.718,-2.5642,4.1028,-25.1282,-72.3076,-7.6921,-17.9485,8.718,-9.2307,5.6409,2.5642,7.1794,-4.6155,13.3333,
7.4355,0.25635,5.8975,-19.7437,-76.6667,-7.436,-12.5645,11.5381,-4.3589,-1.2822,5.3843,6.9229,-0.25635,15.1279,
7.6924,-1.0254,7.1797,-15.8975,-82.564,-5.6411,-11.7949,10.2563,-6.1538,0,2.564,8.7178,0,18.4614,
7.9487,-0.25635,3.3335,-16.1538,-78.2051,-2.3076,-16.6665,10.5127,-8.4614,7.436,0.25635,12.564,-3.8462,17.1797,
5.1279,0.5127,-0.5127,-18.9746,-76.9231,-4.6152,-16.4102,11.2822,-5.6411,9.7437,4.6152,18.4614,-4.6152,18.9741,
6.1538,-2.0513,2.0513,-21.0259,-83.5898,-8.2051,-12.3076,8.7178,-6.667,7.1792,3.5894,18.4614,-4.1025,13.8462,
10.5132,1.2822,-0.25635,-17.1792,-71.5383,-0.25635,-13.5898,11.5386,-9.4868,7.9487,0.25635,15.1284,-3.333,21.2822,
6.4104,0.76929,-4.3586,-24.3586,-64.8716,-5.8972,-14.1023,12.0515,-6.9231,7.4358,2.8206,13.5901,-0.76929,32.0515,
4.3589,-0.25635,-2.3076,-28.4614,-73.5898,-15.6411,-12.5645,11.5386,-5.8975,10,4.8716,15.6411,0.25635,20.769,
8.7178,0.5127,-0.5127,-23.0771,-69.7437,-13.3335,-9.231,8.7178,-6.6665,7.6924,2.0513,10.2563,-3.0771,9.7437,
10.0002,2.8206,1.282,-16.1536,-57.6924,-10.5129,-4.8718,3.8464,-8.9744,2.8206,-1.282,11.5383,-7.9485,20.7693,
9.4875,7.4363,2.8206,-9.4871,-53.5896,-4.3586,-3.3333,12.5642,-12.5637,12.0515,-2.8206,26.5383,-8.4612,22.3079,
14.1025,2.8203,3.8462,-14.1025,-60.2563,-2.8203,-3.8462,17.6924,-12.0513,13.5898,-3.3335,27.436,-7.9487,8.4614,
14.1025,2.3076,3.8462,-17.6924,-59.7437,-4.3589,-2.3076,13.0771,-9.4873,2.8203,-2.3076,12.564,-6.9229,23.4614,
10.2566,6.6667,1.5383,-17.9485,-48.2051,-3.5896,3.5896,11.7952,-8.718,-4.1023,-1.5383,5.1282,-4.6155,38.4614,
15.6409,5.8972,1.7947,-20.2566,-39.2307,-4.8718,5.8972,11.5383,-4.3591,-2.8206,-1.7947,7.4358,-6.4104,23.4614,
20,4.1025,0,-14.8716,-37.9485,-8.2051,0,10.2568,-5.1279,5.6411,-2.564,9.7437,-7.6919,8.4614,
19.7437,3.8462,-0.76904,-10,-38.2051,-6.9229,0.76904,11.0259,-8.4614,7.436,-2.8203,7.9487,-4.3589,23.4614,
24.3589,7.9487,-0.25635,-14.1025,-30.5127,-0.76953,0.25635,13.0767,-14.6152,1.2822,-8.9746,10.5127,-9.4873,31.5386,
26.9231,11.0256,0.25659,-15.6409,-27.949,3.8459,-2.8206,15.6409,-18.718,-0.25659,-12.0515,14.6155,-15.6409,16.5386,
20.7693,4.8718,0.25659,-18.718,-40.7693,-0.25659,2.3079,12.051,-15.1282,-3.3333,-10.5129,1.282,-12.5642,8.9744,
22.8203,8.9741,0.25635,-19.7437,-44.8718,-0.25635,6.4102,15.1279,-5.3848,-2.8208,-2.8208,0.76904,-2.8208,23.9744,
23.5898,9.2305,-0.5127,-22.0513,-48.718,-5.1284,1.5386,12.8203,-4.1025,-3.5898,0.5127,9.7437,-1.5386,20.5127,
22.3074,1.7947,0.76929,-22.8206,-45.3848,-8.9744,4.8718,7.9485,-6.9231,-1.282,-0.76929,8.9744,-3.8464,10.5129,
24.6152,0.5127,-0.5127,-24.6152,-30.3848,-3.5898,8.2051,10.769,-7.6924,6.1538,-3.0771,11.2822,-7.6924,25.5129,
20,1.5386,-2.564,-30.769,-29.7437,-1.5386,2.0513,7.1797,-12.3076,9.7437,-7.6924,20,-14.3589,37.436,
16.6665,4.8721,-3.3335,-28.4614,-36.6665,2.3076,-2.3076,5.8975,-16.6665,12.564,-6.4102,25.8975,-13.5898,25.8975,
17.436,-1.5386,-8.7178,-32.3076,-29.2305,1.5386,1.5386,4.1025,-11.2817,7.6924,-6.6665,17.9487,-11.7949,20,
17.1794,-2.8206,-4.8718,-34.6155,-23.8459,2.8206,8.9744,5.3845,-3.3333,5.3845,-4.8718,11.0256,-10.5129,18.2053,
10.5129,4.3591,-4.3591,-28.9744,-35.6411,6.4104,10.0002,7.4358,-7.4358,-0.25659,-5.8972,0.25659,-7.9485,6.9231,
17.436,8.7178,-1.0254,-22.564,-42.0513,8.7178,12.8208,11.7949,-5.6411,-4.1025,0.51269,-6.1538,-0.5127,11.7949,
20.7693,1.7947,-3.3333,-26.4104,-38.2051,4.8718,5.3845,8.4617,-11.0256,-1.7947,-4.3591,1.7947,-12.051,22.8206,
17.1794,-0.76929,-4.3591,-32.5642,-34.6155,3.3333,4.3586,0.76929,-15.6414,2.8206,-11.0256,9.4871,-19.2307,19.2307,
14.3591,3.5896,-3.5896,-33.8459,-36.4104,4.1028,10.7693,1.0256,-12.8206,-1.0256,-5.1282,3.5896,-10.7693,13.3333,
7.4358,3.3333,-9.4871,-33.0769,-39.231,2.8206,7.9485,3.8459,-11.5383,-3.3333,-2.8206,5.3845,-12.0515,14.1023,
9.7439,-1.0256,-2.051,-29.2307,-31.282,1.0256,12.3079,2.5642,-5.6409,5.1282,-3.0769,17.949,-12.8206,15.3845,
10.5127,-3.3335,3.8462,-28.9741,-30.5127,-0.25635,8.9746,1.2822,-14.1025,0.25635,-7.9487,8.9746,-15.1279,13.0771,
10.2561,1.0256,4.1023,-26.6667,-40.0002,8.2048,10.2561,10.2561,-13.3333,-4.6155,-3.5901,-1.0256,-10.2566,17.9485,
8.9744,-1.7947,2.8206,-27.4358,-41.282,11.5383,15.6409,12.0515,-3.3333,-5.3845,-2.8206,1.7947,-6.4104,23.8459,
9.7434,-0.51294,0.51294,-25.1282,-32.3079,12.8206,13.8459,13.3333,-4.1028,-2.0515,-4.6155,5.1282,-6.6667,28.718,
8.7183,-4.1025,0.5127,-26.6665,-35.8975,8.2051,11.7949,9.231,-10.769,-0.5127,-3.0767,6.667,-8.7178,15.3848,
5.1284,-7.1797,-0.5127,-29.231,-38.9741,2.0513,11.2822,2.0513,-15.8975,0.5127,-5.1284,13.8462,-15.8975,6.1538,
2.8206,-2.8206,-1.282,-28.4617,-25.3845,5.3845,15.1282,4.8718,-11.0256,1.282,-2.8206,7.9485,-14.1028,15.6409,
1.7949,-1.7949,1.7949,-31.5386,-14.1025,6.4102,21.7949,6.4102,-2.8203,-2.8203,2.3076,-5.8975,-2.3076,12.564,
-0.51294,-0.51294,1.5383,-30.7693,-21.5383,5.1282,22.051,7.1794,-2.0515,-3.0769,2.5642,-6.6667,0.51294,3.0769,
-2.5642,2.0515,1.0256,-25.1282,-31.282,6.1541,23.0769,10.2566,-1.5383,-3.0769,3.0769,-5.1282,-1.0256,12.8206,
2.0513,2.0513,-0.5127,-20,-23.0771,11.2822,19.4873,11.7949,-5.1284,-7.1797,0.5127,-4.1025,-4.6152,27.8206,
6.4106,2.3076,-2.3076,-15.1279,-11.0254,17.6924,14.6157,12.5645,-12.564,-10,-4.8716,2.8208,-6.9229,20.7695,
4.6155,2.5642,-1.0256,-14.3591,-13.8464,15.8972,14.8718,8.718,-17.4358,-12.8206,-8.718,1.0256,-10.2566,5.7695,
2.564,2.0513,-2.0513,-16.9233,-11.7949,12.8203,19.4868,5.6411,-16.9233,-7.6924,-9.231,4.1025,-12.8208,9.2305,
1.282,0.25659,-0.76929,-23.8459,-12.0515,11.0256,28.9744,5.8972,-8.4617,-0.25659,-1.282,11.5383,-4.8718,22.8206,
-2.5642,-0.51294,-1.5383,-28.2048,-17.9485,11.7952,25.6409,10.7693,-7.1794,-1.0256,5.1282,5.6409,0.51294,15.3845,
-1.282,1.282,-4.3586,-26.4099,-4.3586,12.0515,20.2566,11.5388,-6.9231,-1.7947,6.4104,1.7952,-3.8459,8.9744,
2.3076,-1.7949,-4.8716,-28.4614,7.9487,1.7949,21.7949,0.76904,-5.3848,-6.4102,-0.76904,1.7949,-12.564,5.8975,
2.8206,-1.7947,-5.8977,-24.8718,4.8718,4.3591,19.7434,1.7947,-15.6409,-8.4617,-10.0002,4.3591,-20.2566,4.3591,
3.3333,-0.76929,-5.3845,-18.718,0.76929,16.6667,20.2566,12.5642,-20.2566,-3.8459,-12.0515,11.5383,-19.2307,14.1023,
4.8718,-1.7947,-3.8464,-19.2307,0.76929,13.0769,18.2053,11.5383,-15.1282,-0.76929,-12.5642,17.1794,-14.6155,29.1023,
4.1023,-3.5901,-4.1028,-23.0769,-1.0256,9.7434,15.3845,4.6155,-11.282,1.0256,-9.7439,19.4871,-12.8206,30.2561,
2.0513,-7.1792,-2.0513,-25.6406,-2.564,16.4106,24.6157,5.6411,-7.1792,3.5898,-3.5894,16.4106,-10.769,15.2561,
-0.51294,-5.6409,-4.1028,-26.6667,0.51294,12.8206,25.6409,8.2053,-7.1794,4.1028,-3.0769,9.2307,-10.2566,2.051,
2.5642,-4.6155,-7.6921,-28.718,7.1794,3.5901,18.4617,2.0515,-10.7693,-1.0256,-7.1794,1.0256,-11.7947,17.051,
11.282,-0.51294,-1.0256,-26.1541,15.8972,12.8206,23.0769,0.51294,-11.7952,-4.1028,-7.1794,2.051,-13.3333,17.4358,
5.3845,-0.76929,-4.3591,-28.9744,16.1536,17.6921,22.8206,3.8459,-16.6667,-6.4104,-11.5388,1.282,-19.2307,2.4358,
6.1538,-2.0513,-4.1025,-32.8208,15.8975,12.8203,24.1025,8.2051,-11.2822,-2.564,-9.7437,2.0513,-13.8462,9.2305,
5.8975,-2.3076,-7.9487,-39.7437,8.9746,15.1284,20.7695,4.8721,-11.0254,-2.8203,-8.9741,2.3076,-10,18.7183,
1.5386,-1.5386,-11.2822,-43.0769,6.6665,21.0254,21.5386,4.1025,-7.1797,-6.6665,-2.564,2.564,-8.2051,9.7437,
4.3591,-1.282,-5.8972,-42.8203,8.9744,16.6667,30.0002,7.4358,1.282,-5.8972,4.3591,-3.8459,-4.3586,-1.7947,
5.3848,-0.25635,-6.4102,-41.282,11.0254,16.1538,31.0254,6.4102,0.25635,-3.8462,1.2822,-10,-1.7949,-1.7949,
1.0254,-0.5127,-5.6411,-40.5129,17.436,20,26.6665,3.5898,-4.1025,-3.5898,0.5127,-6.1538,-2.564,13.2051,
0.25635,-0.25635,-6.9233,-39.7437,23.8462,20.769,22.3076,6.4102,-10.5127,-0.25635,-2.3076,6.9229,-10.5127,28.2051,
-1.2822,-6.4102,-13.0767,-43.3333,18.2051,18.7178,19.7437,7.436,-13.5898,1.2822,-6.9229,11.5386,-14.1025,13.2051,
2.0515,-7.1794,-8.2053,-42.5642,23.5896,22.0515,24.6155,6.1541,-5.6409,1.5383,-1.5383,8.2053,-7.1794,-1.7949,
1.282,-1.7952,-7.949,-41.7952,37.6921,21.282,22.3074,6.4099,-8.4617,-0.76929,-2.3079,0.76929,-12.0515,10.5125,
1.5386,-0.5127,-7.6924,-42.0513,33.3335,17.436,26.6665,7.6924,-7.1797,-1.0259,-2.0513,0.5127,-11.2822,25.5125,
1.7947,-1.7947,-6.9231,-41.282,19.2307,18.718,27.949,5.3845,-5.8972,-2.3079,-1.7947,4.8718,-6.9231,12.0515,
5.6411,-0.5127,-4.1025,-38.9744,18.9741,21.0254,25.1284,3.5898,-6.6665,-4.6152,-1.0259,3.5898,-6.6665,0.5127,
13.0771,-1.2822,-1.7949,-39.2307,27.436,14.6152,29.4873,4.8716,-4.3589,-6.9229,1.2822,-8.4614,-7.436,8.4614,
16.9231,0.51294,-2.0515,-32.3079,38.9744,15.3845,35.3845,7.6921,-5.1282,-9.2307,-0.51294,-14.8718,-9.7434,12.3079,
15.6411,1.7949,-1.7949,-28.4614,37.1797,21.7949,37.1797,5.3848,-8.9741,-14.1025,-2.3076,-19.231,-7.9487,6.9233,
11.2822,1.5386,-7.1797,-35.3848,25.6411,24.1025,30.2563,6.1538,-9.7437,-14.8716,-1.5386,-25.1284,-5.1284,2.564,
5.6409,-0.51294,-14.3591,-41.0256,29.2307,26.6667,27.6921,8.2053,-6.6667,-8.718,0.51294,-20.5129,-6.1541,2.051,
8.2051,0.5127,-10.769,-36.4102,38.9741,25.6411,33.8462,3.5898,-8.7178,-5.6411,-0.5127,-5.5129,-11.2822,7.1797,
11.5383,-0.25659,-6.4104,-29.4871,34.6155,21.282,29.4871,0.25659,-16.6667,-6.9231,-6.4104,3.8459,-16.6667,19.7434,
11.5383,-1.282,-2.8206,-25.8977,34.6155,18.718,30.5129,1.7947,-12.5642,-3.3333,-4.8718,1.282,-12.5642,21.282,
9.9998,-0.76929,-3.8464,-25.8977,44.8718,17.6921,31.5383,0.76929,-12.0515,-0.76929,-4.8718,2.3079,-14.1028,8.9744,
9.2307,-1.0256,-9.2307,-27.1794,44.6155,18.9744,27.6921,1.5383,-14.8718,-3.5896,-6.6667,1.0256,-13.8459,3.5896,
14.8718,1.0256,-3.5896,-25.1282,38.4617,24.6155,34.8718,6.1541,-5.6409,-2.0515,-1.0256,-6.1541,-7.1794,7.6921,
15.6411,-0.25635,-2.8203,-25.8975,39.7437,23.3335,33.0771,5.3848,-5.8975,-0.25635,0.25635,-11.0254,-11.0254,10.5132,
18.2048,1.282,-1.7952,-27.4358,44.3591,19.7434,32.051,4.8718,-6.9231,-5.8977,-1.282,-12.0515,-9.4871,14.6155,
18.2051,1.7949,0.25635,-32.0513,47.436,16.667,33.0771,-0.25635,-12.0513,-15.1279,-11.0254,-14.1025,-13.5898,11.0259,
20.5129,3.0769,1.5383,-27.6926,62.436,16.4104,33.3333,-1.5383,-16.4104,-9.2307,-13.3333,-5.1282,-17.949,9.2307,
21.5386,0,4.1025,-27.6924,64.1025,14.8716,38.4614,0,-13.3335,-6.1538,-9.7437,-4.1025,-11.7949,10.2563,
16.6665,-0.76904,0.76904,-30,55.6411,18.2051,38.7178,3.8462,-9.4873,-11.0254,-10,-14.1025,-5.3848,8.9746,
15.8975,2.0513,-2.0513,-30.769,60,17.9487,35.8975,3.5898,-8.2051,-11.2817,-6.1538,-17.9487,-7.6924,3.0771,
20.2563,3.3335,-0.25635,-31.5386,68.9746,17.1797,36.6665,2.3076,-8.9741,-8.4614,-2.3076,-15.6411,-10,0.25635,
21.7949,2.3076,-2.3076,-32.564,67.9487,20.769,37.6924,3.8462,-11.0259,-10,-5.3848,-14.6152,-8.9746,2.8203,
21.7949,1.7949,-1.7949,-34.1025,61.7949,18.7183,40.7695,2.8208,-6.4102,-11.0254,-4.3589,-14.1025,-5.3843,6.4106,
22.5642,4.6155,-2.5642,-31.7947,66.6667,15.8972,38.4617,2.5642,-10.2566,-11.7947,-4.6155,-14.3591,-9.2307,8.718,
24.1028,3.5901,-2.5642,-31.282,76.9231,17.949,39.4871,3.0769,-14.3586,-10.7693,-4.6155,-14.8718,-12.8206,2.5642,
24.8716,2.3076,-1.2822,-35.1284,74.6152,15.1279,41.7949,3.3335,-6.4102,-5.8975,0.25635,-12.0513,-10,-0.25635,
13.3333,1.5383,-12.8206,-44.1025,62.0515,8.2053,34.3591,2.0515,-6.1536,-2.051,-1.5383,-10.2561,-10.7693,12.3079,
8.718,-0.51294,-11.7947,-44.1025,57.4358,13.3333,35.3845,2.5642,-5.1282,0.51294,-3.0769,-5.6409,-6.6667,16.4104,
12.0513,-1.2822,-4.3589,-35.1279,61.2822,17.6924,32.564,1.7949,-7.9487,0.25635,-6.4102,-0.25635,-8.4614,2.8208,
11.2822,-1.0254,-7.1797,-39.4873,64.6152,10.769,27.6924,1.0259,-13.3335,0.5127,-8.7178,-0.5127,-12.3076,5.1284,
9.7437,-3.5894,-12.3076,-46.6665,69.7437,7.1797,30.2563,0.51318,-16.4102,0,-8.2051,0,-15.8975,15.3848,
13.8459,3.0769,-10.2566,-39.4871,83.0769,13.8459,32.8206,-1.0256,-18.9744,-3.0769,-9.2307,1.0256,-18.4617,6.6667,
25.1282,10.2566,2.0515,-30.2561,93.3333,17.949,36.9231,0.51294,-10.7693,-7.6921,-3.5896,-11.282,-10.7693,-0.51294,
22.0513,5.6411,1.5386,-36.4102,88.7183,13.8462,33.3335,0,-11.7949,-15.8975,-6.1538,-26.282,-11.7949,0,
17.9487,5.6411,-0.51269,-33.8462,89.7437,16.4102,37.9487,3.0771,-11.2817,-14.3589,-5.1279,-31.2817,-9.7437,0.5127,
22.8203,5.3848,5.3848,-25.8975,96.6665,15.6411,42.3076,0.76904,-11.0259,-16.1538,-3.8462,-31.5386,-7.9487,-0.76904,
19.9998,3.0769,-0.51294,-25.6409,89.2307,10.2561,32.3079,0.51294,-22.0515,-19.4871,-13.3333,-32.8206,-17.4358,1.5383,
18.4617,3.0769,-3.0769,-24.1023,78.9744,9.2307,33.8464,5.6414,-22.5637,-14.8718,-15.8972,-26.1536,-18.4612,13.3337,
17.1794,3.8459,-1.282,-26.9231,76.1541,9.4871,35.6409,1.282,-21.282,-15.6409,-18.718,-27.4358,-18.718,14.6155,
16.4102,7.1797,0,-26.6665,77.9487,16.4102,33.8462,0,-18.4614,-14.8716,-16.4102,-30.2563,-16.9229,6.1538,
15.6411,5.3848,-2.3076,-23.8462,68.4614,12.0513,38.2051,2.8208,-12.0513,-14.1025,-8.4614,-33.0767,-11.0254,2.3076,
20.2566,7.4358,-6.4104,-23.8459,64.8718,7.4358,42.8206,5.3845,-11.5383,-13.5896,-5.3845,-35.6411,-7.4358,10.0002,
27.4358,9.4871,-2.8206,-26.9231,75.1282,14.1023,41.7947,2.8206,-13.0769,-12.5642,-7.949,-34.1028,-6.4104,4.8718,
27.6924,9.7437,0.5127,-23.5898,78.4614,19.4873,37.9487,3.5898,-13.8462,-7.6924,-12.3076,-24.1025,-6.1538,-0.51269,
22.0513,9.7437,-5.1284,-22.5645,69.2305,16.9229,35.8975,3.5898,-14.3589,-3.5898,-10.7695,-16.9233,-9.231,13.333,
22.0515,11.282,-2.5642,-26.1536,65.1282,14.8718,39.4871,2.5642,-12.8206,-5.1282,-5.6409,-16.9231,-7.1794,17.4358,
24.8718,14.1028,-0.25659,-22.3079,66.9231,19.7434,37.6921,5.3845,-15.1282,-8.4617,-6.4104,-23.3333,-4.3591,2.4358,
27.9487,15.6411,1.7949,-18.2051,66.9229,22.8203,39.7437,7.9487,-8.9741,-10,-6.4102,-35.6411,-1.7949,-8.4614,
24.6155,14.3591,-0.51294,-22.0515,63.0769,17.9485,37.4358,2.5642,-9.2307,-15.8972,-9.7434,-48.718,-7.6921,0.51294,
26.6665,16.4102,-2.564,-18.4614,66.6665,18.9741,31.2822,2.564,-17.436,-15.8975,-11.2822,-40.5129,-11.7949,14.3589,
30.2563,10.7695,-2.0513,-22.564,64.6157,18.9746,31.7949,2.0513,-16.9229,-13.333,-13.333,-29.2305,-9.2305,6.1538,
31.282,13.3333,-0.51294,-23.0769,64.1028,26.1541,38.4617,6.6667,-9.7434,-6.1536,-7.1794,-21.5383,-3.0769,0.51294,
19.4868,11.2817,-9.231,-23.0771,52.8203,22.0513,34.3589,3.5898,-13.3335,-9.231,-3.5898,-24.6157,-4.6157,4.1025,
18.2051,9.4873,-8.4614,-21.7949,45.8975,19.7437,32.0513,2.3076,-12.0513,-12.564,-2.3076,-31.5381,-5.8975,10.5132,
18.7178,12.564,-3.8462,-23.3335,47.9487,23.8462,32.564,5.8975,-11.0254,-11.5386,-6.4102,-36.1538,-7.9487,3.8462,
21.5386,17.9487,2.564,-19.4873,54.8721,26.6665,39.4873,8.2051,-7.6924,-6.6665,-3.0767,-30.2563,-3.0767,-2.564,
20,15.3848,0,-15.3843,54.3594,23.0771,32.3081,3.0771,-10.769,-9.2305,-3.0767,-22.564,-8.2051,0,
10.769,8.2051,-2.0513,-15.8975,43.5898,21.5386,24.1025,2.0513,-12.8203,-10.2563,-4.1025,-16.9229,-14.3589,12.8203,
6.4104,8.4617,-1.282,-22.3079,40.2561,17.6921,27.4358,1.282,-13.0769,-5.8977,-3.8464,-16.1541,-8.4617,13.5896,
9.7434,15.3845,-7.6921,-28.718,55.2561,15.3845,31.282,3.0769,-11.282,-6.1536,-3.0769,-17.9485,1.5383,-1.4104,
11.0259,14.6152,-6.4102,-34.1025,70.2561,12.0513,32.564,2.3076,-6.4102,-13.5898,-2.3076,-26.9229,3.3335,-10,
14.1025,18.2051,2.3076,-27.9487,85.2561,12.0513,36.1538,-0.25635,-7.436,-13.0771,-3.8462,-28.4614,0.25635,-3.8462,
15.8975,19.4873,0,-25.1279,100.2561,13.3335,43.5898,-1.0254,-10.769,-11.7949,-4.1025,-25.6411,2.0513,0,
17.4358,15.3845,-1.0256,-29.7434,115.2561,12.3079,47.6921,1.0256,-11.282,-11.7952,-2.5642,-23.5896,2.051,-2.5642,
16.6665,15.1284,1.7949,-25.3848,127.9487,13.0771,43.8462,1.7949,-14.1025,-11.0254,-3.8462,-19.7437,-3.8462,-1.7949,
16.1538,20.2563,0.76904,-21.7949,120.769,14.1025,43.8462,-1.7949,-10,-12.0513,-0.25635,-21.2822,0.25635,-1.2822,
7.6919,19.4868,-7.6924,-30.7695,111.2817,10.769,39.4868,-2.0513,-7.1797,-12.3081,2.0513,-23.5898,3.5894,-2.0513,
0.76929,12.051,-10.0002,-37.1794,100.2566,3.8459,34.6155,-0.76929,-3.8459,-6.9231,3.3333,-20.7693,4.8718,-8.4617,
5.1282,11.282,-4.1023,-35.8975,93.8459,-1.5383,34.3591,-1.5383,1.5383,-2.5642,4.6155,-13.8459,5.1282,-12.3079,
6.6665,14.8716,-5.1284,-33.8462,93.333,5.1279,30.769,-0.5127,-4.1025,0,1.0254,-10.2563,0,-3.5898,
4.8716,12.0513,-4.8716,-35.6411,87.436,11.0254,33.5898,-1.2822,-5.8975,-2.8203,1.2822,-17.6924,2.8203,-1.7949,
2.8203,8.4614,-7.436,-40.7693,73.0767,3.8462,32.0513,-2.8208,-2.3076,-7.9487,2.3076,-30.5129,5.8975,-9.4873,
1.282,9.9998,-11.5388,-44.3591,60.2561,-0.76929,27.4358,-2.3079,0.76929,-2.3079,5.3845,-25.8977,2.8206,-16.6667,
0.25635,10,-10,-42.3079,54.1025,-1.2822,31.0254,-3.8462,0.76904,-0.25635,4.3589,-12.0513,2.8203,-17.6924,
2.8203,10.5127,-7.436,-35.1284,58.2051,-0.25635,28.9741,-2.8208,-3.3335,0.76904,0.25635,-1.7949,2.8203,-2.6924,
3.0767,6.6665,-8.2051,-35.8975,60.5127,-4.1025,24.1025,-5.1284,-5.1284,3.5898,-2.564,1.5386,-1.5386,5.1279,
4.1025,7.6924,-7.1792,-34.8718,57.436,-2.564,25.1284,-3.5898,-4.1025,3.0771,-1.0254,0,0,3.0771,
4.3589,7.4355,-6.4102,-34.6155,53.5898,-2.3076,25.3843,-2.8208,-3.3335,1.7949,-0.25635,-2.3076,0.76904,0.25635,
5.3848,8.4614,-5.3848,-33.5898,50.5127,-0.76904,26.4102,-1.2822,-2.3076,0.76904,1.2822,-3.3335,1.7949,-1.7949,
5.3845,8.4617,-4.3591,-33.0769,47.4358,0.25659,27.4358,-0.25659,-1.7947,-0.25659,2.3079,-5.3845,2.8206,-4.3591,
5.3845,7.9485,-4.8718,-33.5898,42.8206,0.25659,26.9231,-0.25659,-2.3079,-2.3079,2.3079,-8.4617,2.8206,-7.949,
4.6152,7.1797,-4.6152,-33.8462,38.4614,0,26.6665,0,-2.0513,-4.1025,3.0771,-10.769,3.0771,-11.2822,
3.8464,8.4617,-8.9744,-37.1794,45.3845,-1.282,22.3079,0.76929,-5.3845,-1.282,3.3333,-0.76929,1.7952,-6.9231,
2.564,3.5898,-14.8721,-45.6411,49.7437,-4.1025,19.4873,-4.1025,-1.5386,-1.5386,1.5386,-1.5386,3.5898,1.5386,
-3.0771,4.1025,-16.4102,-48.2053,40.5127,-0.51269,18.4614,-2.564,0.5127,2.0513,1.0254,-1.0259,4.6152,-1.0259,
-0.25659,7.9485,-13.5896,-39.7437,39.2307,0.25659,23.3333,-0.25659,-0.76929,3.3333,3.3333,-1.7947,5.3845,-3.3333,
5.8972,5.8972,-7.9485,-32.5642,44.8718,-2.3079,25.8972,-2.8206,-2.3079,2.3079,1.282,-3.3333,4.3591,-1.282,
2.0513,5.1279,-7.6924,-32.8206,40.5127,-2.0513,19.4873,-3.5898,-6.6665,6.6665,-3.5898,5.1279,-0.5127,0.5127,
3.8459,6.4099,-8.9744,-36.6667,39.7434,-3.8464,21.7947,-4.3591,-7.4358,3.3333,-1.282,3.3333,1.282,-6.4104,
14.1025,10.5127,-6.9233,-33.5898,54.7434,0.25635,28.4614,-1.7949,-1.7949,-0.25635,4.8716,-5.3848,7.436,-7.436,
14.1023,7.9485,-8.9744,-34.1028,65.3845,0.76929,24.8718,-2.8206,-0.76929,-2.3079,2.8206,-6.4104,5.3845,-7.4363,
13.0771,13.0771,-4.3589,-33.0769,61.7949,-0.76904,25.3848,-2.8203,-3.3335,-1.7949,1.2822,0.76904,3.8462,-2.8203,
9.231,12.3076,-8.7178,-31.7949,58.9746,0,22.564,-3.5898,-7.1792,-1.5386,-1.0254,2.0513,1.5386,0,
6.4099,5.3845,-10.5129,-30.0002,53.5896,-1.7952,22.3074,-2.8206,-0.76929,0.76929,2.3074,-1.282,7.9485,-3.3333,
6.4102,6.9229,-5.8975,-26.9233,47.9487,-3.8462,23.333,-0.25635,0.25635,-0.76953,3.8462,-6.9233,10.5127,-0.76953,
4.3591,9.4871,-8.4617,-28.9744,47.9485,-3.3333,25.3845,-1.7947,-0.76929,-4.8718,1.7947,-11.0256,4.8718,0.76929,
3.8462,6.9229,-11.0259,-34.1025,48.4614,-6.9233,27.436,-4.3589,3.3335,-3.3335,3.8462,-12.0513,4.3589,-11.5386,
0.5127,1.5386,-14.3589,-37.436,48.2051,-11.2822,22.0513,-5.1284,0.5127,-0.5127,5.1279,-12.3076,6.6665,-14.8721,
-0.5127,0.5127,-11.2822,-38.4617,46.1538,-11.7949,24.6152,-10.7695,4.6152,4.1025,6.1538,-6.1538,9.7437,-8.2051,
-0.25635,0.76953,-12.564,-40.769,42.3076,-16.6665,21.7949,-16.6665,0.25635,2.8208,0.25635,-2.8203,3.3335,-18.2051,
7.9485,6.9231,-7.4358,-32.5642,52.051,-10.5129,23.3333,-5.3845,-3.3333,3.8459,-1.282,1.282,1.282,-13.5901,
14.8721,8.2051,3.0771,-27.6921,54.8721,-6.6665,29.231,-3.5894,-0.51269,1.0259,-1.0254,0,0,-1.5381,
15.8975,11.7949,5.6411,-27.1797,52.8203,-6.1538,28.7178,-7.1797,0,-6.1538,1.0254,-6.667,0,-8.2051,
9.7437,7.6924,0.5127,-30.2563,47.6924,-11.2822,24.6152,-11.2822,-0.5127,-16.9229,3.0771,-21.5386,5.1284,-17.436,
6.4102,7.4355,-1.7949,-27.949,42.3076,-11.0259,23.8462,-11.5386,1.7949,-16.1538,4.3589,-22.3076,6.9229,-8.9746,
10,11.0254,-1.7949,-25.8977,42.8203,-6.9233,25.3843,-7.436,3.333,-10.5132,1.7949,-14.1025,1.7949,-10,
19.7437,8.4614,-1.2822,-28.9744,51.5386,-7.436,26.4102,-7.436,3.8462,-7.436,1.2822,-7.9487,1.2822,-19.231,
18.718,8.4617,-5.8972,-31.0256,54.1028,-6.4099,20.7693,-6.9231,1.7952,-0.76929,0.76929,-0.76929,3.8464,-11.5383,
6.6665,7.6919,-7.6924,-34.3591,39.1028,-8.7183,20,-8.7183,0,0.5127,0,-0.51318,1.5381,-5.1284,
10.7693,6.6667,-5.6409,-30.769,29.7439,-12.3074,24.1028,-5.6409,2.0515,-1.0256,1.0256,-1.0256,3.5901,-2.051,
13.333,6.1538,-9.231,-30.7695,34.8716,-12.3081,22.0513,-3.0771,3.5894,0,0,-1.0259,8.7178,-1.0259,
6.1538,6.1538,-8.2051,-32.3076,27.6924,-6.6665,18.4619,-6.1538,0,0,-1.0254,2.5645,5.6411,-4.1025,
7.9487,6.9233,-3.8462,-23.333,23.3335,-2.8203,15.6411,-6.9229,-2.8203,6.4102,1.7949,16.667,-2.8203,-1.7949,
14.6155,5.3845,-6.4104,-20.7693,32.0515,-11.0256,13.5896,-8.9744,-0.76929,7.949,0.76929,17.6921,-4.3591,-5.3845,
22.3076,11.5386,-0.25635,-21.2822,46.4102,-5.3848,19.231,-4.3589,-1.7949,2.8203,-1.2822,8.4614,0.25635,-4.8716,
21.5386,10.7695,3.0771,-18.9741,48.7178,4.1025,22.0513,-4.1025,-8.7178,-3.0767,-1.5386,1.5386,-3.0767,-2.564,
