"AF3","AF4","F3","F4","F7","F8","FC5","FC6","O1","O2","P7","P8","T7","T8",
5.1282,-3.5896,8.2053,6.1541,19.4871,-1.0256,-18.4617,-8.718,1.0256,-8.2053,-2.5642,10.7693,-60,2.5642,
2.0513,-7.1797,6.1538,1.5386,15.3848,-12.8203,-20,-10.769,4.1025,-8.7178,-1.5386,6.1538,-53.8462,4.6152,
4.8716,-2.3076,9.4873,2.3076,15.1284,-18.7178,-18.2051,-7.436,6.4102,-7.436,2.8203,4.8716,-46.4102,-3.3335,
7.949,-1.7947,10.5129,9.4871,21.282,-13.5896,-14.6155,-9.4871,2.3079,-7.9485,1.7947,7.4358,-48.4614,-8.4617,
10.5127,-1.7949,13.5898,12.564,21.7949,-6.9233,-11.0259,-14.1025,1.7949,-8.4614,3.8462,2.8203,-46.9231,-3.8462,
11.282,1.0256,16.4104,11.282,16.4104,-7.6921,-11.7952,-11.282,2.051,-8.2053,8.718,-1.5383,-40,-1.0256,
8.718,0.51294,15.8972,14.3591,16.9231,-11.282,-13.3333,-9.7434,3.0769,-7.1794,1.5383,-0.51294,-43.0769,-7.6921,
6.9231,4.8718,18.2053,18.2053,21.282,-5.8972,-13.0769,-10.5129,5.8977,-6.4104,-2.3079,2.3079,-50,-8.4617,
2.8206,2.3079,13.0769,10.0002,20.7693,-3.3333,-16.6667,-15.6409,-1.282,-13.5896,1.282,2.3079,-53.0769,-7.9485,
3.3333,2.3079,11.0256,14.6155,26.4104,0.76929,-15.6409,-16.6667,-3.3333,-11.0256,-0.76929,16.6667,-47.9487,-3.3333,
2.0515,1.0256,12.3079,19.4875,23.0769,1.5388,-17.4358,-11.282,-1.0256,-4.6155,-10.2561,25.6414,-54.8716,-1.0256,
-0.25635,-1.2817,11.5386,13.0771,19.231,-0.76904,-18.7178,-10,2.3076,-2.8203,0.76953,16.1538,-66.9231,0.25635,
0.25635,3.3335,14.1025,16.1538,25.3848,-0.76904,-16.6665,-11.5386,-0.25635,-4.8721,10.5127,11.0254,-69.4873,-1.2822,
5.3848,6.4102,15.6411,21.2822,27.436,2.8203,-13.5898,-8.4614,-3.3335,-5.3848,-2.8203,14.1025,-67.9487,-2.8203,
8.9744,1.7947,10.5129,14.6155,23.3333,3.8459,-16.6667,-8.9744,-3.3333,-7.4358,-10.5129,13.5896,-74.6155,-1.7947,
6.9231,1.282,8.4617,14.6155,24.3591,1.282,-19.7434,-12.0515,-4.8718,-13.0769,-1.282,14.1028,-81.282,-5.8972,
5.6409,0.51294,9.2307,18.4617,17.949,-0.51294,-16.4104,-13.8459,-6.6667,-14.3591,1.0256,14.8718,-78.9744,-10.7693,
10.5127,3.8462,12.564,20.769,13.5894,5.8975,-15.6411,-15.1284,-6.4106,-10.5132,-3.8462,16.6665,-74.6155,-5.3848,
10,7.9487,13.0771,21.7949,19.231,5.8975,-19.231,-16.6665,-6.4102,-10.5127,-6.4102,17.1797,-77.1794,-5.8975,
5.1282,6.1541,6.6667,17.4358,18.9744,3.0769,-20.5129,-17.949,-7.6921,-14.3591,-3.0769,15.3845,-81.5386,-12.3079,
2.5642,1.0256,2.0515,10.7693,13.8464,5.1282,-23.5896,-18.4617,-11.7947,-13.8459,-1.0256,10.7693,-82.0513,-9.7434,
4.1025,0.5127,3.5898,12.8203,12.8203,5.1279,-23.5898,-17.9487,-8.7178,-9.7437,-0.5127,11.2822,-76.9231,-4.1025,
4.6155,6.6667,8.718,23.0769,15.8977,6.6667,-21.0256,-16.4104,-8.718,-9.2307,-6.1536,19.4871,-80,-4.6155,
2.0513,3.0771,13.8462,23.0771,14.8721,7.6924,-21.5386,-18.9741,-12.3076,-12.8203,-13.333,21.0259,-92.8203,-2.0513,
5.1279,-2.0513,15.3848,21.0254,15.3848,2.0513,-20,-17.436,-7.6924,-12.8203,-6.1538,16.9229,-94.8718,2.564,
9.4871,1.282,13.0769,25.3845,15.6414,0.76929,-20.7693,-13.0769,-7.9485,-8.9744,-0.76929,11.5388,-96.6665,-2.3074,
7.9487,2.3076,11.5386,22.3076,13.5898,2.3076,-17.1792,-14.1025,-11.0254,-6.9229,-2.3076,7.436,-102.8203,-7.4355,
4.1028,0.51294,12.3079,17.4358,14.3591,-0.51294,-12.3079,-15.8972,-5.6409,-6.1541,3.5896,11.7947,-102.564,-3.0769,
4.1025,-2.0513,11.7949,20.5127,15.3848,0.5127,-15.3848,-16.9229,-0.5127,-5.1284,3.5898,12.8203,-107.1794,-1.5386,
6.9229,1.2822,14.1025,22.3076,18.7178,5.8975,-15.1284,-14.1025,-1.7949,-7.436,-1.2822,8.9741,-114.1025,-6.4102,
3.3333,3.3333,10.5129,17.1794,26.9231,5.8977,-16.1541,-17.6921,-10.5129,-15.1282,-3.3333,3.8459,-117.6924,-11.0256,
3.0771,1.5386,6.6665,15.8975,31.7949,10.2563,-19.4873,-17.436,-9.2305,-12.8203,-3.0767,8.7183,-117.4358,-1.5386,
2.8203,-2.8203,5.8975,14.1025,22.3076,12.564,-21.7949,-8.4614,-6.4102,-7.9487,-8.9746,14.1025,-123.3333,4.3589,
10.0002,3.3333,15.6414,19.2307,32.5642,17.6926,-15.6409,-7.4358,-9.4871,-15.1282,-3.3333,16.1541,-124.8716,-3.3333,
9.2305,1.5386,15.8975,21.0254,38.4614,17.9487,-18.4614,-17.436,-16.4102,-26.6665,-1.5386,8.2051,-128.718,-13.3335,
2.564,2.0513,7.1792,18.9741,23.4614,17.4355,-17.9487,-9.231,-6.1538,-11.7949,-5.6411,8.2051,-123.5898,-2.0513,
-3.5898,1.0259,1.0259,11.7949,10.2563,9.7437,-12.8203,-7.6924,2.564,-1.5386,-5.6411,10.769,-119.4871,-1.0259,
6.4102,0.25635,11.0259,15.1284,21.2822,10.5132,-13.0767,-11.0254,-4.8716,-8.9741,-0.25635,13.0771,-123.3333,-8.9741,
4.6152,-0.5127,8.2051,12.8203,15.8975,8.7178,-21.5386,-9.231,-13.3335,-15.8975,0.5127,8.7178,-127.6924,-9.231,
-5.1284,1.5386,0,6.6665,3.5898,4.1025,-14.3589,-5.6411,-0.5127,-2.5645,3.0767,11.2817,-118.4617,0,
-2.3076,-1.2822,-0.25635,10,8.9741,1.7949,-11.0259,-8.4614,0.76904,1.7949,-5.3848,18.2051,-124.3591,0.25635,
3.0771,-3.0771,1.5386,14.3589,11.7949,4.6152,-7.6924,-1.5386,-2.0513,-6.1538,-1.5386,20.5127,-124.1025,1.5386,
-2.8203,-5.3843,0.25635,7.436,3.8462,4.8721,-6.4102,-0.25635,-0.76904,-10,8.4619,7.436,-113.0767,2.8208,
-1.7949,0.25635,2.3076,8.4614,8.9741,6.4102,-8.9746,-3.3335,-1.7949,-5.3848,-0.25635,5.3848,-111.0256,5.3848,
-0.25635,3.8462,0.25635,12.0513,9.4873,11.0259,-10,-4.8716,-2.8203,-3.333,-10.5127,15.6411,-118.2048,2.8208,
0,3.5898,2.0513,14.8716,13.8462,17.9487,-16.4102,-1.5386,-7.1797,-12.3076,-4.1025,26.1538,-125.6411,0,
-0.5127,-1.0259,6.1538,13.8462,16.9229,18.4614,-24.6152,0.5127,-12.3076,-17.9487,-5.1284,27.6924,-129.2307,1.5386,
-3.8459,-0.76929,0.76929,11.0256,7.4358,16.6667,-13.5896,1.7952,-5.3845,-2.9487,-9.9998,22.8206,-118.7178,8.9744,
-6.6665,2.0513,-9.231,9.2305,-4.1025,9.7437,-4.6152,-0.5127,1.5386,0.5127,-0.5127,12.3076,-111.7949,8.2051,
0.5127,1.5386,-2.0513,11.2822,-0.51269,4.6157,-9.2305,-3.5898,-1.0254,-9.2305,10.2563,10.7695,-114.3589,2.5645,
3.5898,-0.5127,3.0767,10.2563,3.0767,7.1792,-14.8721,-4.1025,-10.2563,-10.7695,-1.0259,12.8203,-118.9744,0.5127,
0.25635,-0.25635,2.3081,12.5645,5.3848,15.6411,-9.4868,-0.25635,-5.8975,-5.3843,-10,14.1025,-114.6152,4.3594,
-0.76929,0.76929,1.7947,16.6667,5.8977,15.1282,-8.4617,-1.7947,-0.76929,-4.8718,-3.3333,12.0515,-107.4358,4.8718,
-0.25635,0.25635,1.7949,15.1284,0.76904,11.5386,-11.5386,-4.8716,-1.7949,-3.8462,-0.25635,8.9746,-104.8718,3.8462,
1.5383,-2.051,5.6414,14.8718,-1.5383,11.282,-10.2561,-6.6667,1.5383,-3.0769,-5.1282,5.6414,-108.2051,4.1028,
2.0513,-1.0259,7.1797,20,0,7.6924,-13.3335,-7.6924,0,-5.6411,-8.2051,6.1538,-108.718,2.0513,
-2.8206,0.25659,2.8206,18.2053,1.7952,11.5383,-12.051,-6.9231,-2.3079,-0.25659,-3.3333,12.0515,-98.7178,1.282,
-10.2563,-4.1025,-0.5127,9.231,0.5127,16.9229,-9.231,-7.6924,1.5386,2.0513,-1.0259,11.7949,-96.9231,2.0513,
-10,-2.8203,-0.25635,7.9487,0.25635,14.6152,-13.5898,-7.9487,1.2822,-1.2822,0.25635,7.9487,-102.3076,5.8975,
-6.4104,0.76929,-4.3591,7.4358,-7.4358,6.4104,-15.1282,-6.9231,-0.76929,1.7947,5.3845,4.8718,-99.2307,3.3333,
-0.51294,1.5383,0.51294,10.7693,3.0769,12.3074,-14.3591,-5.6409,-3.5896,-4.1028,2.5642,10.2561,-98.9744,-3.5896,
7.1797,2.0513,12.8208,18.4614,18.0769,27.3074,-11.7949,-3.5898,-10.2563,-12.3076,-2.0513,15.8975,-103.5896,-2.0513,
0.25659,-3.8459,1.282,6.9231,13.0769,18.718,-8.9744,-6.4104,-6.9231,-10.0002,1.282,1.7947,-98.2051,-0.25659,
0.25659,-0.25659,-5.8972,2.3079,-0.25659,13.0769,-8.9744,-3.8459,2.3079,-1.7947,2.3079,0.25659,-88.4614,2.3079,
4.6155,0.51294,3.0769,8.2048,14.7434,24.1023,-14.8718,-5.1282,-6.6667,-9.7434,-12.6921,10.2566,-98.4617,-0.51294,
3.5898,-1.5386,4.1025,10.7695,19.4873,30.2563,-15.8975,-7.6924,-14.3589,-15.3843,-18.9741,12.8208,-102.564,1.5386,
2.8206,3.8464,-2.8206,15.6414,7.949,24.8718,-13.5896,-6.4104,-4.3586,-3.8459,-5.8972,17.1794,-89.4871,11.5383,
0,2.5645,-5.1279,13.8462,5.6411,20,-14.8716,-1.5381,0,-2.0513,-1.0254,22.0513,-84.1023,7.1797,
-3.5896,1.5383,-1.0256,9.2307,6.6667,23.0769,-13.8464,1.5383,-3.0769,-7.1794,-1.5383,21.5383,-84.1025,1.0256,
-4.8716,0.25635,0.25635,5.3848,-3.333,20.2563,-15.1279,-7.436,0.25635,-5.3848,-0.25635,18.2051,-80.769,5.8975,
-2.8203,-2.8203,-0.25635,3.3335,0.76953,17.1797,-14.1025,-7.9487,0.76953,-1.7949,0.25635,17.1797,-76.1538,6.9233,
-1.2822,-3.3335,0.25635,5.3848,11.5386,15.1284,-5.8975,2.3076,-0.76904,-4.8716,-0.25635,12.564,-68.4614,5.8975,
-0.51294,-3.5901,4.6155,9.2307,11.282,11.7947,-5.6414,0.51294,-2.0515,-12.3079,-2.0515,11.7947,-67.1797,5.6409,
-1.5383,-4.1023,6.6667,6.6667,6.1541,12.3079,-12.8206,-5.6409,-4.6155,-12.3079,1.5383,17.4358,-69.2307,2.5642,
-1.0259,-5.1284,4.1025,5.1279,2.564,13.8462,-8.2051,-3.0771,-0.5127,-3.5898,6.6665,16.4102,-61.0256,0.5127,
4.8716,-3.3335,6.4102,13.0767,5.3848,15.6411,-6.4102,-0.76904,-1.2822,-2.8208,-4.3589,12.564,-63.3335,0.76904,
4.6155,-1.0256,10.2566,16.9231,6.1541,13.8464,-16.4104,-5.6409,-9.7434,-9.7434,-14.3591,14.3591,-76.9231,1.0256,
4.8716,-4.3589,7.9487,14.1025,4.8716,11.0254,-15.1284,-7.436,-5.8975,-9.4873,-5.3848,20.769,-73.0771,4.3589,
2.8206,-6.9231,2.8206,7.9485,5.3845,12.0515,-12.0515,-8.4617,-2.8206,-6.9231,-5.3845,25.3845,-65.8975,7.4358,
4.3591,-4.3591,3.8459,4.8718,7.9485,18.2053,-15.1282,-6.9231,-3.8459,-6.4104,-11.0256,26.4104,-69.4871,5.8972,
6.4102,-3.3335,3.3335,7.9487,7.9487,17.1797,-19.7437,-8.9741,-4.3589,-10.5127,-11.0254,17.1797,-73.5896,4.3589,
7.1792,-2.0513,2.0513,8.7178,11.7949,17.4355,-17.9487,-8.2051,-2.5645,-13.3335,-9.231,8.2051,-67.6924,6.1538,
12.5642,-4.8718,7.4358,11.0256,20.7693,23.3333,-11.5383,-2.8206,-3.3333,-11.5383,-3.8459,14.1028,-62.8206,2.8206,
11.7952,-5.6409,12.8206,14.8718,17.4358,17.949,-13.3333,-0.51294,-6.1536,-5.1282,-1.5383,21.5388,-65.6409,0.51294,
0.25635,-6.9229,2.8203,2.8203,2.4358,5.8975,-15.6411,-2.3076,-0.25635,0.76904,-2.8203,8.9741,-62.8206,0.76904,
-0.25635,-5.3843,-4.3589,0.25635,0.25635,13.0771,-10,-1.7949,6.4106,2.8208,-1.7949,6.4106,-52.051,3.8462,
5.6411,0,0,11.2817,15.2563,25.1279,-11.2822,0,-2.0513,-1.0259,-5.1284,20.5127,-51.7949,3.0767,
-2.0513,-5.6411,-4.1025,3.5898,1.0254,14.3589,-12.3076,0,0,1.5386,-7.6924,15.8975,-52.3079,2.564,
-1.2822,-8.9741,-2.3076,-0.76904,0.76904,13.5898,-9.4873,1.2822,4.8721,6.4102,-3.8462,17.1797,-51.5383,8.9746,
7.436,-6.9229,3.8462,7.9487,15.769,22.8203,-13.0767,-4.3589,-6.9229,-3.8462,-5.8975,29.4873,-57.1794,4.8716,
7.9485,-4.8718,-2.3079,5.8972,11.5383,14.6155,-4.8718,-5.3845,2.3079,-2.3079,-3.8464,22.3079,-48.9744,7.4358,
8.9741,-2.8208,-8.9746,0.25635,-3.4617,4.3589,-0.25635,-1.2822,16.1538,10.5127,-1.2822,11.5381,-38.2053,14.1025,
8.2051,-6.667,-6.1538,0,0,2.564,-9.7437,-9.7437,6.6665,6.6665,-5.6411,12.3076,-45.6411,6.6665,
3.5898,-6.1538,-8.7183,0,-7.6924,0,-7.6924,-9.231,7.1792,3.5898,1.0254,12.8203,-46.1541,6.6665,
5.1282,-5.1282,-8.2053,0.51294,-12.8206,-0.51294,-3.0769,-1.0256,15.8972,6.6667,14.3591,19.9998,-37.436,10.7693,
9.2307,-5.1282,-3.0769,1.0256,-3.0769,-1.0256,-7.1794,-5.6409,10.2566,6.1541,12.3079,27.6926,-37.4358,8.2053,
7.6924,1.0254,-9.7437,0.5127,-4.6152,-0.5127,-3.0771,-2.564,9.231,8.2051,-1.0259,27.6924,-39.4873,10.769,
4.6152,-3.5898,-13.3335,-2.5645,-10.2563,1.5381,0,0,10.769,7.1792,-8.2051,25.1279,-42.0515,9.2305,
7.9487,-8.4614,-1.2822,-1.7949,-8.9746,3.3335,-0.25635,-4.8721,11.0254,6.9229,0.25635,21.7949,-36.6665,6.9229,
3.8462,-4.8721,-6.9233,-3.3335,-23.9746,-8.4614,3.3335,-3.3335,18.2051,11.0254,5.3848,12.0513,-23.8462,11.0254,
-0.5127,-2.564,-17.9487,-6.1538,-32.3079,-15.3848,6.1538,3.0767,23.5898,13.3335,0.5127,14.8716,-23.0769,10.769,
5.3845,-3.3333,-9.4871,-2.8206,-19.7434,-4.8718,2.8206,3.8459,18.2053,12.051,-4.3591,17.6921,-31.5386,5.3845,
6.4099,-7.949,-7.4363,-4.3591,-24.3591,-6.4104,2.8206,0.76929,17.1794,7.9485,-0.76929,9.4871,-29.4873,8.4612,
3.3335,-9.4868,-13.5894,-4.8716,-27.4358,-12.0513,0.25635,0.25635,16.1538,4.3594,-0.25635,18.7183,-23.8459,12.5645,
7.436,-2.8203,-7.436,3.3335,-17.6924,-2.3076,-5.3848,2.3076,11.0254,3.8462,-8.4614,22.3076,-28.4617,7.9487,
7.1794,-1.5383,-7.1794,1.0256,-27.1794,-2.5642,-1.0256,7.1794,18.9744,10.2566,-5.1282,7.3076,-27.1794,7.6926,
2.5642,-5.6409,-10.2561,-0.51294,-22.0513,-3.0769,-1.5383,3.5901,15.3845,9.7439,0.51294,1.5383,-23.5896,8.2053,
2.564,-8.2051,-7.6924,3.0771,-7.0513,8.2051,-9.7437,-7.6924,0.38452,2.0513,-6.6665,12.8203,-28.7178,5.1284,
5.3845,-2.3074,-6.9231,1.282,-5.8972,8.9744,-2.3074,-1.282,11.5383,10.5129,-2.3074,6.9231,-22.3074,10.0002,
-1.282,-4.8718,-17.1794,-7.9487,-20.8972,-4.3591,3.8459,3.3333,23.8459,14.1023,1.282,1.7947,-17.1794,13.0769,
2.564,-10.2563,-13.8462,-4.6152,-11.2822,3.5898,5.1284,-2.564,17.436,10.2563,-8.7178,13.8462,-22.0513,10.769,
7.6921,-10.2566,-8.718,-0.51294,0.51294,10.2561,-6.6667,-7.6926,2.436,0.51294,-15.8977,9.2307,-28.718,2.051,
5.6409,-5.1282,-11.282,-0.51294,-14.4871,3.5896,-7.1794,1.0256,9.2307,3.5896,-5.1282,0.51294,-19.9998,4.1028,
3.0767,-4.6152,-14.3589,0,-22.5642,2.0513,-1.0259,0,15.3848,10.769,-6.1538,2.0513,-17.436,6.1538,
11.0256,-3.3333,-7.4358,1.282,-12.5642,4.8718,-1.282,-5.8977,9.9998,11.0256,-11.5383,4.3591,-18.2053,7.4358,
13.333,-5.1284,-4.103,-2.5645,-10.7695,1.0254,0,-3.5898,14.8716,8.7178,0,6.1538,-9.7437,11.7944,
5.1279,-8.2051,-10.7695,-7.1797,-13.3335,2.0513,-3.0771,-0.5127,11.7949,5.6411,0.5127,4.6152,-15.3848,8.7178,
6.1538,-2.0513,-10.2563,-2.5645,-7.1797,15.3843,-2.5645,2.0513,9.2305,12.3076,-6.1538,3.5898,-20.0002,10.769,
4.3591,-1.282,-8.9744,0.76929,-14.6155,15.1282,-1.282,-0.76929,10.5129,10.0002,-4.8718,4.8718,-13.0769,11.0256,
-0.5127,-8.2051,-11.7949,1.5386,-16.4102,9.231,-4.6152,0.5127,9.231,3.0771,-3.5898,9.231,-12.8203,9.7437,
2.8208,-9.4868,-12.0513,-1.7949,-2.8203,14.6157,-4.8716,1.7949,11.5386,8.9746,-6.4102,9.4873,-15.6406,11.5386,
5.6414,-6.1536,-11.7947,-8.2048,3.0769,18.4617,-5.6409,-3.5896,8.718,8.2053,-3.0769,6.1541,-15.3845,8.2053,
5.1279,-6.667,-9.7437,-6.667,-0.51318,8.7178,0,-2.0513,6.1538,0,2.0513,13.333,-12.8208,5.6406,
7.9487,-6.4102,0.25635,3.3335,6.9233,6.9233,-0.76904,-1.7949,-0.25635,-1.2817,-4.8716,19.231,-14.6152,6.4102,
10.769,-2.5645,8.7178,11.2817,21.9233,21.0254,-13.8462,-5.6411,-9.7437,-2.0513,-7.1797,18.4614,-21.5386,2.0513,
4.3591,-4.8718,0.25659,3.3333,19.7434,13.0769,-12.5642,-3.8464,-2.8206,-3.3333,-0.25659,14.6155,-14.1028,0.25659,
0.76953,-7.9487,-10,-0.76904,4.7434,-1.9231,-4.3589,0.25635,4.8721,0.25635,-0.25635,11.0259,-6.4102,5.8975,
6.667,-6.6665,-3.0767,9.231,5.1284,3.5898,-6.6665,-1.5386,-3.5898,1.5386,-2.564,13.3335,-11.2817,4.1025,
11.7949,-4.6152,8.7178,18.4614,20.1284,17.436,-7.6924,0.5127,-7.6924,-4.1025,-0.5127,15.3848,-10.2563,-0.5127,
9.9998,-1.282,5.3845,12.5637,19.2307,11.5383,-9.4875,0.76929,-8.9744,-8.4617,-12.0515,9.4871,-6.4104,-0.76929,
10,0.76904,-0.76904,8.9741,10.5127,7.9487,-8.4614,-1.7949,-6.4102,-3.3335,-13.0771,8.4614,-6.9233,0.76904,
6.667,-2.564,-2.0513,13.3335,12.3076,12.3076,-10.769,0,-2.0513,0,-8.2051,12.3076,-6.1538,1.0259,
1.5386,-3.5898,4.1025,15.3848,16.4102,15.3848,-16.4102,0,-9.231,-5.6411,-16.9233,12.8203,-3.5898,0,
7.1792,-0.5127,13.3335,13.8462,17.436,17.436,-9.7437,-3.0771,-10.2563,-7.1797,-11.7949,12.3076,-4.6152,0.5127,
4.8716,-7.436,0.25635,2.3076,2.436,7.4355,-5.3848,-6.9233,1.2817,-0.76953,-0.25635,6.9229,-5.8975,2.3076,
0.76929,-10.0002,-9.4871,-2.8206,-10.0002,6.4104,-3.8459,-0.76929,11.5383,9.4871,-1.7947,3.8459,5.3845,6.9231,
-0.25635,-6.9229,-2.8203,0.25635,-1.7949,9.4873,-7.4355,0.76953,5.8975,2.3081,-11.0254,4.8721,1.7949,-0.25635,
5.6409,-2.5642,8.2048,6.1536,5.6409,12.3079,-10.7693,-5.1282,2.5642,-6.6667,-5.6409,7.6921,-11.282,-3.0769,
7.949,-0.76929,5.3845,7.949,-2.8206,12.5642,-12.5642,-8.9744,1.7952,-7.4358,-2.8206,4.8718,-8.4612,0.76929,
5.3845,2.3079,-1.7947,7.4358,-3.3333,13.5896,-12.5642,-1.7947,-1.7947,-3.3333,-11.5383,1.7947,1.7947,2.3079,
4.3589,-2.3076,-3.3335,0.76904,7.436,12.0513,-10,1.2822,-2.3076,0.25635,-14.6152,-1.7949,2.3076,-0.25635,
9.7437,-3.0767,1.5386,-0.5127,13.8462,14.3589,-4.6152,-4.6152,-2.0513,0,-6.1538,0,5.1284,0,
9.231,-1.0254,0,3.5898,9.231,12.8208,-4.6152,-9.2305,-5.6406,-8.7178,-5.6406,1.5386,7.1797,0,
7.6924,-1.5386,-1.0259,6.1538,2.0513,7.1792,-1.0259,0,0,-6.1538,-11.2822,-1.0259,7.1792,2.0513,
9.7434,1.0256,2.0515,10.7693,3.0769,9.7434,-6.1541,2.5642,-5.6409,-7.6921,-17.9485,-3.0769,-1.0256,-1.5383,
10.769,3.0767,2.0513,10.769,0,11.2817,-8.2051,-2.0513,-6.1538,-8.7183,-12.8208,-0.5127,1.5386,0,
6.1538,-2.0513,-3.5898,3.0771,-10.769,0,-0.51269,1.0259,4.1025,0,-7.1792,-6.6665,11.7949,7.6924,
1.2822,-3.8462,-4.8716,0.25635,-8.9741,-5.8975,0.76953,5.3848,3.3335,-0.25635,-14.1025,-11.0254,10,7.436,
4.1025,-4.1025,0,3.5898,1.5386,2.5645,-6.6665,-0.5127,-4.1025,-8.7178,-22.564,0.51318,7.1797,0,
8.2048,-3.0769,1.0256,5.1282,1.0256,8.718,-13.8464,-5.1282,-5.1282,-11.282,-21.5383,7.1794,9.2307,-1.0256,
5.8975,-2.3076,0.25635,3.3335,-10,1.7949,-5.8975,-0.25635,3.3335,-3.8462,-13.0767,-0.76904,10.5127,0.76953,
5.6414,-1.5383,-1.5383,0.51294,-18.4617,-2.051,5.6414,1.5383,8.718,2.0515,-5.6409,-3.0769,13.3333,-0.51294,
14.1028,2.8206,-1.282,5.3845,-10.0002,7.4358,-0.76929,0.25659,-1.282,-5.8972,-6.9231,4.8718,10.5129,-0.25659,
16.9229,5.6411,2.564,12.3076,-6.1538,10.2563,-6.6665,-2.0513,-7.6924,-13.8462,-9.7437,2.0513,6.6665,-2.564,
11.7949,4.6157,0,10.7695,-21.1538,0,5.6411,0,4.1025,-4.1025,-2.0513,-7.6924,18.9746,-0.5127,
3.0771,0,-11.2817,0,-32.3076,-7.1792,11.2822,-0.5127,9.231,4.6152,-1.0254,-7.1792,26.1538,1.5386,
2.8203,-1.2822,-9.4873,-2.8208,-22.3081,-0.25635,4.3589,-4.8721,6.4102,0.25635,-7.436,3.333,20.769,1.7949,
7.436,-1.2822,-4.8721,1.2822,-15.1284,4.8716,-1.7949,-3.3335,3.8462,-2.8208,-8.4614,4.8716,20.2563,4.3589,
5.6411,-5.1284,-11.7949,-0.5127,-21.5386,1.0254,0,0,4.1025,0,-5.6411,-2.0513,25.1279,5.1279,
4.8721,-3.8462,-11.5381,-0.25635,-17.1792,0.25635,2.8208,-0.76904,3.3335,-0.25635,-4.8716,1.2822,24.8721,1.7949,
12.5642,-3.8459,0.76929,8.9744,-2.8206,7.4358,-2.3079,-3.3333,-0.76929,-3.3333,-6.4104,11.0256,22.8206,5.8972,
12.051,-10.0002,0.76929,3.8459,-8.4617,9.4871,-5.8977,-6.9231,-0.76929,-3.8464,-8.9744,4.8718,21.7947,8.4612,
8.718,-4.6155,-3.5896,0.51294,-5.6409,12.3079,-0.51294,-2.5642,2.5642,-2.0515,-4.1028,3.5896,24.1028,7.6921,
8.7183,-4.1025,-0.5127,4.6152,8.7183,12.3076,-1.0254,-7.1792,-3.0767,-10.769,-4.1025,11.7949,20.5127,0.51269,
8.2053,-6.6667,1.5383,6.6667,4.6155,10.7693,-5.6409,-10.2566,-6.1541,-12.8206,-10.2566,11.282,16.9231,-1.5383,
7.6924,-2.564,0.5127,5.6411,-10.3845,11.7949,-3.0767,-1.5386,3.5898,-1.0254,-6.1538,-0.51269,23.5898,8.7183,
10.5127,-6.9229,-0.76904,0.76904,-12.564,8.9746,0.76904,-3.8462,5.3848,-0.76904,-1.7949,-4.3589,24.8721,8.4614,
14.1025,-9.4873,0.25635,-0.25635,-0.25635,10,1.7949,-10.5127,-0.25635,-7.436,-4.8716,3.8462,24.3589,5.3848,
10,-8.9746,2.3076,-2.8208,2.8203,8.9741,-0.25635,-10.5132,0.25635,-10,-5.8975,-2.8208,30,5.3843,
9.4871,-6.4104,6.9231,0.25659,3.8459,12.5642,-4.8718,-5.3845,-0.25659,-7.949,-6.9231,-6.9231,28.9744,8.9744,
13.5901,-6.4099,3.3333,1.282,6.4104,16.1541,-5.8972,-6.4099,-4.8718,-6.9231,-13.5896,-1.282,19.7439,9.4871,
17.436,-4.1025,-2.564,-3.0771,5.6411,13.8462,1.5386,-6.1538,5.6411,-1.5386,-8.7178,-3.0771,27.1797,9.7437,
14.1025,-3.3335,-2.8203,-5.3848,2.8203,8.9746,-0.76904,-4.3589,8.4614,0.76904,-5.3848,-3.8462,31.0259,8.4614,
6.1543,-6.6665,-4.6152,-6.6665,-2.0513,9.231,-3.5894,-2.0513,3.0771,3.5898,-8.2051,2.0513,26.667,8.2056,
1.0254,-10.2563,-11.7949,-7.1797,0,13.8462,-6.667,-4.1025,0,0,-7.6924,5.6411,24.1025,11.2817,
9.7437,-4.6152,-8.7178,0,11.7949,21.5386,-6.6665,-3.0767,0,0,-1.0254,14.3589,27.1797,17.436,
11.5383,-6.9231,-2.8206,2.8206,10.5129,18.718,-5.3845,-3.3333,-5.3845,-2.8206,-7.949,13.0769,20.7693,11.0256,
1.5386,-11.7949,-0.5127,0.51269,5.1284,12.8208,-13.8462,-6.1538,-14.3589,-10.769,-20,6.667,10.7695,4.1025,
-0.76929,-5.8977,0.76929,5.3845,4.8718,15.6409,-11.5388,-1.282,-6.9231,-2.8206,-9.4875,14.615,17.1794,12.5637,
-2.0513,-6.1538,2.0513,8.7178,10.769,17.436,-9.231,-2.564,-7.6924,-5.1279,-2.0513,18.9746,15.8975,8.7178,
-2.3081,-7.9487,10.5127,11.5381,18.7178,20.2563,-12.0513,-1.7949,-16.1538,-17.1797,-6.4106,11.5381,11.5381,1.7949,
-6.4102,-6.9233,12.564,8.9741,4.8716,7.9487,-8.9746,-2.3076,-5.8975,-11.0259,-5.8975,2.3076,18.7178,4.8716,
-5.6411,-4.6152,11.2822,9.231,-4.6152,-6.1538,-2.564,-9.231,4.1025,3.5898,-3.5898,2.564,26.1538,7.6924,
0,-4.1025,12.3076,9.231,4.6157,-1.0254,0,-10.2563,-0.51269,-1.0254,-6.1538,2.5645,25.6411,4.1025,
0,-2.0513,7.6924,3.5898,5.6411,5.1279,-4.1025,-2.0513,-6.1538,-7.1797,-6.1538,0,19.4873,5.6411,
-2.051,1.0256,5.1282,1.5383,0.51294,1.5383,-13.8459,-4.1028,-12.3079,-6.6667,-12.3079,-0.51294,10.7693,6.1541,
0.76929,-3.8459,12.5642,7.949,10.0002,6.9231,-15.6409,-12.5637,-15.1282,-10.5125,-18.718,-0.76929,7.949,3.3333,
0,-4.1025,15.8975,15.8975,11.7949,13.8462,-13.333,-7.6919,-12.3076,-10.2563,-15.3843,0,13.8462,9.231,
-8.9746,-1.7949,10,15.6411,1.7949,7.4355,-15.1284,-4.3589,-12.0513,-8.9746,-13.0771,3.8462,15.6411,8.4614,
-6.6667,-3.5896,10.2566,14.8718,3.5896,9.7434,-12.8206,-6.6667,-11.7947,-10.2566,-13.3333,10.2566,12.8206,6.1541,
-2.3079,-1.282,13.0769,16.6667,1.282,14.1023,-7.4363,-6.4104,-6.4104,-5.8977,-11.0256,9.9998,13.0769,13.5896,
-4.1025,2.0513,14.8716,16.9229,-3.5898,8.2051,-7.1797,-6.1538,-2.564,-2.0513,-7.6924,8.7178,16.4102,15.8975,
-5.1282,-3.5896,11.7952,9.7439,6.1541,11.7952,-17.9485,-9.2307,-13.8459,-12.8206,-17.4358,3.5896,10.2566,4.1028,
-0.76929,-8.4617,8.9744,4.8718,17.6921,20.7693,-19.2307,-8.9744,-17.1794,-16.6667,-21.282,2.3079,4.3591,0.76929,
-1.2822,-11.0259,1.2822,2.3076,9.4873,5.7693,-10.5127,-15.1284,-7.9487,-10,-15.6411,1.7949,8.4614,6.9229,
1.7947,-2.8206,4.8718,9.4871,12.051,-1.7947,-4.3591,-13.5896,-3.8464,-4.3591,-7.4358,4.8718,19.2307,12.051,
1.5383,-4.1028,10.2561,6.6667,12.8206,7.1794,-10.2566,-12.8206,-9.7439,-7.1794,-9.2307,-1.5383,16.4104,6.6667,
1.5383,-1.5383,12.3074,2.5642,12.3074,11.282,-8.718,-11.282,-5.6414,-5.1282,-7.6926,-3.0769,14.8718,5.6409,
0.25659,-0.25659,7.9485,0.76929,13.0769,2.8206,-11.5383,-14.6155,-5.3845,-5.8977,-6.4104,-0.25659,11.5383,4.3591,
-0.51294,-6.6667,4.1023,0.51294,9.2307,0.51294,-14.8718,-20.0002,-12.3079,-10.2566,-14.8718,8.718,7.6921,1.5383,
-0.5127,-8.2051,0.5127,3.5898,2.564,0.5127,-14.3589,-17.9487,-16.9229,-13.3335,-20,10.769,6.6665,0.5127,
3.3333,-2.3079,2.3079,8.4617,5.3845,4.8718,-7.9485,-13.0769,-8.9744,-12.5642,-11.0256,-3.3333,8.4617,4.3591,
3.3335,-3.3335,3.8462,3.3335,6.4102,4.8716,-7.9487,-19.231,-8.9741,-13.0767,-12.0513,-13.0767,4.3589,3.3335,
7.1794,-0.51294,5.1282,-2.051,5.1282,0.51294,-6.6667,-15.8972,-4.1023,-5.6409,-8.2053,1.9233,9.7434,7.6921,
8.718,-1.0256,-1.0256,-4.6155,2.5642,-6.1541,-2.5642,-10.2566,1.0256,-2.051,3.0769,8.718,17.949,4.6155,
10.2563,-1.5386,-0.5127,4.1025,6.6665,-3.0771,-0.5127,-9.231,0.5127,-3.0771,5.1279,-4.1025,16.9229,2.0513,
5.6409,-3.0769,1.0256,8.2053,4.6155,-2.051,-2.5642,-11.7947,1.5383,-7.1794,-0.51294,-1.5383,12.8206,0.51294,
-1.0256,1.0256,-3.0769,8.7175,6.1536,-2.5642,-4.6155,-7.1794,4.1023,-1.5388,3.0769,13.3333,14.8718,-2.5642,
-4.1025,2.0513,-5.6411,11.2822,8.2051,2.0513,-3.5898,-8.7178,-2.0513,-0.5127,0.5127,15.3848,12.3076,-2.0513,
-0.5127,-2.0513,0.5127,12.3076,5.6411,5.6411,-0.5127,-13.3335,-6.1538,-4.1025,-6.1538,12.3076,9.7437,2.564,
-1.0256,-1.0256,3.5901,11.7952,3.0769,5.6414,-7.6921,-8.2048,-11.7947,-7.1794,-8.2048,12.8206,7.6926,1.0256,
-2.3076,4.3594,1.7949,14.1025,10,11.0259,-8.4614,-1.7949,-13.5894,-8.4614,-11.0254,16.667,4.3594,-1.7949,
-1.2822,-0.25635,0.25635,11.5386,16.6665,15.1279,-6.9233,-6.9233,-12.564,-8.9746,-12.564,14.6152,3.3335,0.76904,
-1.2822,-5.8975,1.2822,6.9229,16.6665,16.1538,-12.0513,-11.0259,-17.6924,-12.564,-11.5386,3.3335,4.3589,1.2822,
-2.3079,-1.7947,3.3333,10.5129,16.6667,14.6155,-3.8459,-6.9231,-13.0769,-7.4358,-2.8206,1.7947,11.0256,1.7947,
-9.4873,0.25635,-0.76953,8.4614,10.5127,7.4355,-1.2822,-7.436,-9.4873,-3.3335,-0.25635,6.9229,13.0767,3.333,
-9.4873,0.76904,-0.76904,7.436,9.4873,7.9487,-10,-9.4873,-12.564,-7.9487,-6.4102,8.9746,8.9746,1.2822,
-2.0513,2.0513,4.6152,11.2822,16.9229,15.3848,-13.3335,-7.6924,-14.8716,-13.8462,-13.8462,6.1538,4.6152,-2.564,
-5.1282,3.0769,4.6155,13.8459,18.4612,18.9744,-12.3079,-4.6155,-17.4358,-14.8718,-12.3079,5.1282,4.1023,-3.0769,
-11.5383,1.282,3.3333,12.5642,16.1541,13.0769,-9.9998,-3.8459,-15.6409,-4.8718,-2.3079,3.3333,12.0515,-1.282,
-11.2817,0,3.0771,9.231,16.4102,9.231,-8.2051,-8.7178,-14.3589,-4.1025,-5.6411,1.0259,9.7437,0,
-10.5127,-0.25635,3.3335,4.8716,17.6924,12.0513,-7.436,-15.6411,-15.6411,-11.5386,-12.0513,6.9229,3.3335,0.25635,
-9.2307,1.5383,5.6409,6.1541,20.0002,12.8206,-2.051,-10.7693,-11.282,-10.7693,-4.1023,10.2566,12.8206,-1.5383,
-6.4102,1.7949,-0.25635,7.4355,16.6665,7.9487,-1.2822,-3.3335,-6.9233,-6.4102,0.25635,1.2817,21.7949,-1.7949,
-4.8718,1.282,-3.8459,6.4104,7.9485,5.8972,-3.8459,-1.282,-4.3591,-2.3079,-2.3079,1.7947,20.2566,3.8459,
-10.2561,4.1028,-1.0256,6.1541,8.2053,7.1794,-7.6921,-4.6155,-8.2048,-7.1794,-5.1282,13.3333,11.282,1.0256,
-15.1282,7.9485,-0.25659,6.9231,13.5896,7.4358,-4.8718,-4.3591,-4.8718,-4.3591,0.25659,11.0256,16.1541,-2.8206,
-17.6924,1.7949,-5.3848,-0.25635,0.25635,2.8208,0.25635,-5.3848,2.3076,-0.25635,2.3076,-3.9744,25.3848,-0.25635,
-13.5896,0.25659,-6.9231,1.7947,-5.8977,3.3333,-0.25659,-6.4104,-0.25659,-2.3079,0.76929,1.282,23.8459,1.282,
-10,1.7949,-4.3589,8.9741,2.8203,5.8975,-0.25635,-6.9229,-1.2822,-3.3335,0.25635,10,23.8462,-1.7949,
-12.3076,5.1279,-0.5127,3.5898,0.5127,1.0254,2.564,-4.6157,1.5386,-2.564,-3.0771,-3.5898,26.6665,-1.5386,
-14.3589,8.2056,0,-8.7178,-7.1792,-5.1279,0,-1.5381,0.51318,0.51318,0,-12.3076,22.5645,0,
-13.333,2.5645,-6.6665,-12.8203,-1.5386,-2.0513,0,-1.0254,4.1025,1.0259,3.5898,0,21.0259,1.0259,
-12.8206,-2.5642,-11.282,-14.3591,6.1541,1.5383,2.0515,-4.1028,1.5383,-1.0256,-2.051,6.6667,24.6155,1.0256,
-15.3845,2.5642,-5.6414,-17.949,-1.5388,-2.5642,4.6155,-3.5901,1.5383,0.51294,-0.51294,3.0769,28.2048,1.0256,
-15.8975,5.6406,-2.0518,-15.8975,-10.2568,-2.5645,1.0254,-2.0518,1.5381,0,3.5894,0,26.1538,2.564,
-9.7439,6.1536,-3.5901,-7.6926,3.0769,9.2307,-0.51294,-1.5383,-2.5642,-1.5383,0.51294,3.5896,24.6155,1.5383,
-10.5127,5.3848,-3.8462,-8.4614,11.0259,11.0259,3.8462,-0.25635,-2.3076,-2.8203,0.25635,4.3589,21.7949,-4.8716,
-18.9741,2.0513,-2.0513,-11.7949,-1.5386,5.6411,0,0.5127,-2.0513,-4.1025,1.0259,5.6411,20.5127,0,
-15.3848,-0.5127,0,-8.2051,-6.1538,7.1792,-2.0513,0,0.5127,-2.0513,1.5386,14.8716,28.7178,12.3076,
-11.7949,1.5386,-1.0254,-1.5386,-0.5127,5.1284,-0.5127,0,-1.0254,0,3.5898,13.8462,30.2563,6.6665,
-13.8459,1.0256,1.5388,3.0769,2.0515,2.5642,-5.1282,-2.051,-8.718,-4.615,-1.0256,2.5642,20.5129,-1.0256,
-10.5129,-1.282,5.8972,1.7947,4.3586,6.4099,-7.4358,-7.4358,-6.4104,-6.9231,-1.7952,1.282,18.718,3.8459,
-13.333,0,0,2.0513,2.5645,5.6411,-3.5894,-8.2051,-2.564,-4.1025,-0.51269,2.5645,20,1.5386,
-18.9741,1.0259,-1.5386,7.1797,-3.0771,0.5127,3.5898,-2.564,-0.5127,1.0259,0.5127,-0.5127,22.564,-2.564,
-17.1794,0.25659,2.3079,5.3845,-8.4617,-0.76929,-0.76929,-0.76929,-0.25659,2.3079,-1.7952,0.25659,25.3845,1.282,
-14.3586,1.0256,-1.0256,7.1794,-3.5896,4.1028,-8.718,1.5388,-1.5383,-2.5637,-5.1282,6.1541,21.0256,1.5388,
-19.231,0.25635,-0.25635,16.1538,5.3848,6.4102,-2.3076,2.8203,-1.2822,-5.8975,-3.3335,5.3848,17.6924,-3.8462,
-20.2563,0.25635,7.9487,15.6411,6.9229,5.3843,1.7949,-1.7949,-3.3335,-3.3335,-2.8208,-0.25635,20.769,-4.8721,
-14.6155,-0.76929,7.4358,7.4358,2.8206,2.8206,0.25659,-3.8459,1.282,-0.25659,-5.8977,-4.3591,20.7693,-2.8206,
-15.6411,-3.8462,0.25635,4.8716,2.8203,5.3848,2.3076,-0.25635,4.3589,-0.25635,-7.9487,-4.3589,17.1792,-0.76904,
-15.8975,-0.5127,-1.5381,10.2563,8.2051,11.7949,5.1284,-1.5381,0,0,-4.1025,0.51318,22.5645,-0.5127,
-9.7437,-0.5127,3.5898,12.8208,6.1538,8.7178,0.51269,-8.7178,-3.5898,-3.0767,-3.5898,0.51269,28.2051,-4.6152,
-2.8206,4.3591,7.9485,17.6921,8.9744,11.5383,-0.25659,-3.3333,-2.3079,-3.3333,-2.8206,0.25659,24.3591,-2.3079,
-10.769,7.1797,0,13.3335,8.7183,13.8462,-0.5127,0,-3.5894,-3.0767,-4.1025,3.0771,18.4619,-2.564,
-14.8718,-1.0256,-4.6155,5.1282,3.0769,5.1282,1.0256,-4.1028,-8.2053,-3.5901,2.051,4.615,21.5383,-3.5901,
-11.7949,-2.564,0,5.6411,-1.5386,2.0513,1.5386,-6.1538,-8.7183,-2.564,9.7437,3.5898,25.6411,0,
-14.3586,3.5901,-1.5383,5.6414,-5.6409,5.6414,1.5388,-7.1794,-2.051,-1.0256,-1.0256,3.0769,23.0769,1.0256,
-10.7695,8.7178,0.5127,11.2817,-2.564,7.1792,1.0254,-3.5898,-1.5386,-2.564,-11.7949,4.6152,20.5127,-0.5127,
-6.4102,4.3589,9.4873,14.1025,2.3076,2.8203,-2.3076,-2.8203,-9.4873,-6.4102,-9.4873,4.3589,19.231,-2.3076,
-7.6921,0.51294,5.6409,6.1541,2.0515,0.51294,-0.51294,-12.3079,-10.2566,-7.6921,-7.1794,2.5642,20.0002,-5.1282,
-6.4106,5.8975,-1.7949,6.9229,3.333,1.7949,3.333,-15.1284,-6.4106,-5.3848,-10.5132,6.9229,20.769,-1.7949,
-7.4358,1.7947,1.282,10.5125,4.8718,0.76929,-0.76929,-12.5642,-10.5129,-8.4617,-11.5388,1.7947,16.1536,-3.8464,
-3.0771,3.5898,14.3589,15.8975,10.769,7.1792,0,-5.1284,-11.7949,-5.1284,-3.5898,0,21.0254,-3.0771,
-2.5642,6.6667,7.1794,12.3074,2.5642,4.6155,-3.5896,-5.1282,-11.7952,-3.5896,-4.1028,-1.5383,26.6667,1.5383,
-0.25635,8.9741,2.3076,14.6152,-1.7949,4.8716,-1.2822,-3.8462,-1.2822,0.25635,-1.7949,-0.25635,28.9741,10,
-3.3335,5.8975,1.2822,16.1538,-0.76904,3.3335,-3.8462,-5.8975,-5.3848,-4.3589,-9.4873,0.76904,21.2822,1.7949,
-1.5386,7.1797,0,13.3335,4.6157,0,4.6157,-5.1279,-3.5898,-0.5127,-9.2305,2.5645,31.7949,-0.5127,
-3.3335,4.8716,-0.76953,5.8975,10,-2.8208,5.3843,-10.5132,-0.25635,-1.2822,-8.4619,0.25635,35.1279,2.8203,
-6.1541,0.51294,6.6667,8.2053,14.3591,2.051,-4.6155,-16.4104,-7.1794,-13.8459,-11.7947,-0.51294,22.5642,0.51294,
-5.8975,0.76904,4.8716,11.0254,2.8203,0.25635,-0.76953,-13.0771,-4.8721,-10.5132,-10,-0.25635,28.9741,4.3589,
-7.4358,3.8459,-7.949,1.7947,-9.4871,-7.949,6.9231,-5.8977,5.8972,4.4868,-5.8977,-1.7947,40.7693,12.5642,
-6.6667,2.5642,-2.051,0.51294,-1.0256,-7.6921,6.1541,-4.6155,9.2307,12.3079,-3.0769,-0.51294,37.4358,12.3079,
-7.1792,-1.0254,4.1025,11.2822,3.0771,-7.1792,-1.0254,-12.3076,-0.51269,2.5645,-7.1792,0.5127,31.7949,6.1538,
-4.6152,3.5898,0.51269,14.3589,-3.5898,-8.2051,3.0771,-10.2563,-0.5127,5.6411,-4.1025,-2.564,37.436,9.231,
-6.9231,1.282,-7.949,3.8459,-15.1282,-19.2307,8.9744,-3.3337,13.0769,16.6663,-1.282,-10.0002,40.7693,12.051,
-6.1541,4.6155,-2.0515,10.7693,-4.6155,-15.3845,-1.5383,-5.6409,9.7434,5.6409,-6.1541,1.5383,32.8206,5.6409,
-0.76904,11.0259,12.9485,25.3848,10.3845,-0.38452,-10.5127,-14.6152,-5.2566,-9.3591,-7.9487,15.6411,26.9233,0.25635,
-4.8721,7.9487,8.4614,16.1538,-0.25635,-12.0513,2.8203,-12.0513,0.25635,-2.8208,-7.9487,0.64111,33.5898,6.9229,
-7.1792,9.231,-6.5386,6.1538,-10.769,-24.6152,6.667,-6.1538,12.8208,9.7437,-12.3076,-14.3589,37.9487,8.2056,
4.6157,12.3076,0.5127,14.3589,4.231,-11.7949,-7.1792,-9.7437,1.5386,-1.5386,-16.9229,-8.2051,29.7437,-0.5127,
10.5127,14.6152,7.4355,16.1538,7.9487,-5.3848,-3.8462,-10,-7.436,-6.9233,-15.6411,-0.25635,34.1025,0.25635,
-0.51294,11.7947,-7.5645,2.0515,-7.0513,-18.4617,5.1282,-12.8206,2.0515,1.0256,-15.3845,-12.3079,44.1028,0.51294,
0.5127,9.7437,-14.8716,0,-22.0513,-23.5898,5.1284,-15.3848,12.8203,6.6665,-14.3589,-17.9487,41.5386,0,
8.2051,6.6665,0,3.5898,-21.0259,-24.6152,-1.0259,-15.8975,5.6411,0,-21.5386,-17.9487,40.5127,2.0513,
10.5127,8.4614,-11.0259,-1.7949,-17.1797,-22.3079,1.7949,-12.564,7.436,1.7949,-23.3335,-13.0771,52.564,2.3076,
17.1797,18.2051,-24.8718,-4.3589,-5.3848,-11.0254,5.8975,-11.0254,13.0771,11.0259,-18.2051,-8.4614,58.2051,4.3589,
30,20.2563,-18.718,-7.436,-7.9487,-6.9229,10.5127,-15.1282,8.4614,6.9229,-23.8462,-20.2563,54.1025,7.436,
45,26.4102,-3.718,-0.76904,0.76904,8.0771,14.1025,-20.2563,-2.8203,-7.436,-31.5386,-25.3848,48.4614,-5.3848,
60,32.564,1.7949,7.9487,15.769,23.0771,-0.89746,-29.4873,-17.8203,-22.436,-44.3589,-26.4102,36.6665,-20.3848,
74.6152,37.6924,-3.8462,8.4614,30.769,38.0771,3.8462,-22.8203,-4.8716,-12.564,-34.1025,-31.5386,51.0259,-7.9487,
73.3335,32.8203,-7.1797,-2.0513,31.7949,42.564,9.231,-21.5386,2.0513,-6.6665,-23.5898,-41.0256,61.5386,-5.6411,
78.2053,40.7693,-8.9744,2.8206,29.4875,49.4875,9.4875,-18.7175,-2.8206,-5.3845,-23.8459,-32.051,62.8206,-9.9998,
72.5645,40.7695,-14.6152,4.3589,37.6924,50,8.9746,-24.3589,-4.3589,-10,-38.7178,-30.5127,57.6924,-6.4102,
62.051,33.8459,-10.7693,2.5642,36.9231,52.3079,11.282,-28.718,-3.0769,-9.7439,-40.5129,-33.3335,55.8972,-2.5642,
51.2822,24.6152,-2.564,2.564,21.9231,53.8462,7.1797,-30.2563,-9.231,-11.2822,-35.8975,-33.8462,52.8203,-12.8203,
44.3589,25.3848,-2.3076,6.9233,6.9231,48.9746,8.9746,-22.3076,-2.3076,-7.9487,-32.0513,-26.4102,62.3076,-7.4355,
31.5383,19.7434,-15.6409,1.282,-8.0769,37.6921,9.4871,-20.7693,3.3333,-9.4871,-27.4358,-24.8718,66.4104,-1.282,
31.2822,18.9746,-6.6665,7.6924,2.0513,50.7695,8.7183,-25.1279,-2.0513,-11.7949,-23.5894,-22.564,58.4619,-4.6152,
28.9741,21.2822,1.2822,13.5898,-1.2822,58.2051,7.9487,-24.3589,-5.3848,-6.9229,-34.1025,-26.9229,56.1538,-4.8716,
16.6667,13.5896,-13.0769,7.9485,-16.1541,44.3591,11.0256,-25.3848,-0.76929,0.76929,-32.5642,-23.8462,66.4104,-1.7952,
8.4614,7.436,-22.3076,0.25635,-20.2563,39.231,7.436,-23.3335,-0.25635,-0.76904,-21.2822,-11.5386,72.0513,2.3076,
4.1028,10.2566,-15.3845,-1.5383,-21.5383,46.1541,9.2307,-12.8206,1.0256,-1.0256,-19.4871,-16.9231,76.4104,9.2307,
-3.3333,7.4358,-17.1797,-7.4358,-22.3079,38.718,19.2307,-12.5642,7.9485,4.3586,-21.7949,-31.9231,77.1794,3.3333,
-1.7949,6.9229,-16.1541,-10.0002,-15.1284,33.0767,24.3589,-19.231,14.1025,6.9229,-14.1028,-25.3848,77.6924,1.7949,
-3.3333,3.3333,-16.6665,-12.0513,-22.8203,34.1028,22.3079,-25.3845,14.6155,4.8718,-13.5896,-15.1282,80.7693,11.0256,
-6.4102,5.8975,-15.1284,-5.8975,-21.7949,38.2051,17.6924,-22.3079,12.0513,6.4102,-13.5898,-10.0002,84.3589,14.6152,
-6.4102,7.436,-12.0513,1.7949,-6.7949,42.3076,4.3589,-20.2563,0.76904,-0.76904,-15.6411,-4.8716,70.5127,0.76904,
-6.4102,1.7949,-19.7437,-1.7949,-10,42.3076,11.0254,-16.6665,7.436,4.3589,-13.5898,-3.8462,73.5898,7.436,
-10.769,1.0256,-22.564,-5.6409,-25,45.6411,26.0254,-7.6921,22.436,19.3589,-5.6409,-1.0256,88.5898,22.436,
-16.1541,-0.76929,-13.0771,-6.9231,-22.3079,42.8206,23.3333,-13.0771,16.6667,16.1536,-11.5386,0.76929,80.2561,17.6921,
-11.0259,1.7949,-5.8975,-2.8203,-17.1797,42.3076,8.9741,-17.1797,6.9229,4.8716,-15.1284,-1.7949,76.1538,6.9229,
-12.3079,3.5896,-14.3591,-3.5896,-25.1282,43.0769,11.7947,-15.3845,8.718,9.2307,-10.7693,-5.1282,83.0769,12.8206,
-19.2307,1.7949,-19.2307,-6.9229,-26.9231,40.769,22.3076,-19.7437,15.6411,16.6665,-6.9229,-1.7949,86.9229,12.0513,
-19.7437,0.25635,-21.2822,-4.3589,-19.231,41.2817,16.1538,-19.7437,9.4873,7.9487,-11.0259,-0.25635,82.3076,10,
-19.2305,1.7949,-23.8462,-1.7949,-20.7693,40.2563,10,-9.4873,5.3848,1.7949,-14.1025,-5.8975,80.7695,18.7178,
-20.5127,3.0769,-17.4358,-3.0769,-23.0769,35.3845,20.0002,-12.3074,11.7952,9.2307,-9.7434,-11.282,85.1282,16.4104,
-15.6411,2.3076,-7.9487,-2.3076,-15.6411,31.0259,22.8203,-21.282,12.564,8.9746,-7.9487,-13.0769,84.8716,11.5386,
-9.2305,0,-4.1025,0,-8.7178,28.7183,19.4873,-14.8718,10.2563,0.51269,-4.6152,-7.1792,88.7183,20,
-13.8457,-0.51269,-5.1279,1.5386,-13.8457,24.6157,16.4106,-13.333,8.7183,0,-3.0767,0,84.6157,20.5132,
-17.949,-1.0256,-7.1794,1.0256,-20.5129,23.0769,12.3074,-20.5129,9.7434,5.1282,-7.1794,-9.7439,69.6157,5.5132,
-11.7947,-1.5383,-9.2307,1.5383,-13.8459,27.1794,11.7947,-13.8459,8.718,3.0769,-7.1794,-17.4358,54.6157,2.5642,
-11.0259,2.3076,-8.9746,2.3076,-5.3848,31.5386,7.9487,-9.4873,1.2822,-1.2822,-3.3335,-7.9487,44.8716,14.6152,
-14.8718,3.5896,-4.6155,2.051,-5.1282,28.2048,2.5642,-17.4358,1.0256,-1.5383,-5.6409,-1.0256,48.718,15.3845,
-9.7434,5.6409,-2.5642,8.2048,-3.5896,19.4871,1.5383,-16.9231,1.5383,-1.5383,-11.282,-6.1541,46.6667,10.2566,
-4.8718,6.4104,-1.7947,14.6155,2.3079,16.6667,1.7947,-18.2053,-2.3079,-4.3591,-9.4871,-5.3845,42.8206,7.4358,
-11.7947,1.0256,-2.051,9.2307,6.1541,20.0002,-1.5383,-25.1282,-1.0256,-2.5642,-8.718,2.5642,44.6155,5.6409,
-17.9487,0,-7.1792,6.667,6.1543,25.1284,-7.1792,-23.5894,-3.0767,0,-15.3843,2.5645,43.5898,8.2056,
-16.4102,0.5127,-10.769,12.8208,3.5898,25.1284,-3.0767,-17.4355,-3.5898,-0.51269,-10.2563,2.0513,39.4873,11.2822,
-13.5894,0.25635,-10.5127,12.0513,3.3335,21.7949,-1.2817,-18.2051,-2.8203,-0.25635,-5.8975,6.9233,36.667,7.436,
-14.3591,0.51294,-7.6921,5.6409,7.1794,22.5642,-8.2053,-21.5383,-7.1794,-0.51294,-12.8206,4.6155,32.8206,4.6155,
-12.5642,1.282,1.282,8.4617,10.5129,25.3845,-3.8459,-22.8206,-3.8459,-1.7947,-6.9231,-1.282,37.1794,8.4617,
-12.3076,-0.5127,2.564,12.3076,6.1538,17.9487,-1.5386,-28.2051,-2.0513,-4.6157,0,0,40,7.6924,
-13.8459,0.51294,-5.6409,10.7693,3.5896,12.3079,-3.5896,-24.1028,-2.0515,-0.51294,-2.0515,5.6409,39.4871,11.282,
-17.6924,0.25635,-15.1279,3.3335,1.7949,16.1538,-5.3848,-19.2305,-4.3589,-0.25635,-5.3848,2.8208,37.1797,12.564,
-14.1025,3.8462,-9.4873,6.9229,7.436,19.7437,-6.4102,-22.3076,-5.3848,-2.3076,-2.8203,2.3076,39.231,10,
-9.2307,1.5383,2.0515,15.3845,9.7439,7.6921,-9.2307,-32.3079,-10.2561,-7.6921,-6.6667,-1.5383,33.8464,3.5896,
-6.9231,1.282,3.3333,13.5896,0.76929,-0.76929,-7.4358,-27.949,-7.949,-7.4358,-7.4358,1.7947,30.5125,6.9231,
-4.6157,3.0767,-1.5386,5.6411,0.5127,2.0513,-4.6157,-22.0513,-0.5127,-1.5386,-0.5127,10.769,34.8716,9.7437,
-6.9231,0.76929,-0.76929,7.949,13.5901,3.8464,-11.5383,-31.5383,-10.5125,-9.4871,-1.7947,10.0002,25.8977,1.282,
-12.3074,1.0256,-1.0256,15.385,6.6667,1.0256,-11.7947,-27.6921,-14.8713,-12.8201,-5.6409,7.1799,20.0002,3.5901,
-13.8462,4.1025,-2.564,12.8203,-8.3333,-1.5386,-1.5386,-17.436,0.12866,1.5386,-3.0771,10.2563,28.7178,13.3335,
-13.8459,2.5642,-1.5383,10.7693,-16.9231,-6.1536,-6.1536,-24.1023,1.5383,1.5383,-5.6409,5.6414,27.6926,10.2566,
-6.4104,0.76929,5.3845,16.1541,-1.9231,-0.76929,-5.3845,-26.4104,-7.4358,-4.3591,-1.282,9.4871,30.5129,9.4871,
-8.2053,-1.5388,1.0256,9.7434,-1.5388,-1.5388,-0.51294,-22.5642,-1.0256,0.51294,1.5383,16.4099,34.3586,16.4099,
-10.2566,-1.5383,2.5642,8.2053,-9.7434,-5.1282,-4.6155,-23.0769,1.0256,2.051,-1.0256,18.4617,31.282,15.3845,
-1.0259,-2.564,15.3848,20,5.2566,0,-9.231,-29.7437,-13.8462,-11.2822,0,13.8462,22.0513,2.0513,
-1.0256,2.051,14.3586,22.051,10.2561,1.5383,-6.6667,-31.7952,-17.4358,-13.3333,-3.5901,-1.1538,19.9998,1.0256,
-10.7695,6.6665,1.5386,12.3076,-4.7439,-5.6411,0,-24.6152,-2.4358,0,-6.6665,-5.6411,30.2563,12.3076,
-10.5129,0.76929,-6.4104,4.3591,-19.7439,-7.9485,-1.7947,-16.1536,8.9744,6.4104,-0.76929,6.9231,37.1794,15.1282,
-4.6155,-1.0256,-3.0769,5.6409,-4.7439,-6.1541,-3.0769,-16.9231,1.0256,1.5383,4.1023,11.282,36.9231,11.7947,
-14.6152,-0.25635,-2.8203,4.3589,-3.8462,-15.1279,0.25635,-22.3076,5.3848,1.7949,-0.76904,3.3335,37.6924,11.0259,
-19.4871,0.51294,-2.5642,8.2048,-18.8462,-17.949,-3.0769,-18.4617,5.6409,8.718,-0.51294,2.051,38.9744,12.8206,
-14.3589,-2.0513,-3.0767,7.6924,-25.1279,-14.3589,-5.6411,-16.4102,2.0513,7.1797,5.6411,2.0513,36.4102,14.8721,
-17.1792,-4.8716,-16.1538,-1.7949,-27.9487,-17.6924,3.8462,-18.718,11.0259,8.9746,2.3076,1.7949,40.2563,18.7178,
-12.0513,-3.3335,-14.6152,3.3335,-12.9487,-8.9746,3.3335,-21.2822,5.8975,5.3848,-4.3589,10.5127,39.231,15.1284,
-4.8716,-1.7949,0.25635,7.9487,2.0513,-1.7949,-5.8975,-24.3589,-3.8462,1.2822,-0.25635,14.6157,32.5645,8.9746,
-14.3594,-0.51318,-4.6157,0,-11.7949,-14.8721,0,-19.4873,10.2563,13.333,4.6152,4.6152,37.9487,14.3589,
-18.205,0.76917,-16.1537,-0.76917,-26.7949,-22.3077,9.4874,-9.4872,23.8463,21.2823,3.3336,-4.8717,50.0001,22.3077,
-10,-2.3076,-13.0767,0.25635,-15.1279,-14.6152,3.8462,-15.1279,15.1284,12.0513,2.8203,-0.25635,47.436,20.769,
-6.9231,1.282,-6.4104,-1.282,-5.8977,-7.949,-2.3079,-22.3079,7.4358,8.4612,3.3333,8.4612,40.7693,19.2307,
-12.3079,1.0256,-7.6921,-1.0256,-19.4873,-15.8972,3.0769,-18.4617,10.7693,12.3079,-4.1028,2.0515,40.5129,16.4104,
-7.1794,0.51294,-3.0769,4.1028,-22.0513,-22.0513,4.6155,-15.8972,11.7947,8.2053,-8.2053,-0.51294,38.9744,16.9231,
-3.8462,-0.25635,-5.8975,0.25635,-22.8203,-24.3589,3.8462,-19.7434,12.5645,11.5386,-2.8203,0.76953,41.7949,23.8462,
1.0256,-1.0256,-11.7952,-6.1541,-27.1797,-24.6157,11.7947,-15.8977,20.5125,19.9998,6.6663,-3.0769,54.3586,25.1282,
0.76929,-0.25659,-10.5129,-2.8206,-25.3845,-25.3845,4.3591,-18.718,8.9744,7.949,0.25659,-3.3333,45.3845,13.0769,
-5.8972,1.282,-9.9998,-0.25659,-31.5383,-30,4.3591,-17.6924,7.4358,8.4617,-4.8718,0.25659,40.7693,17.1794,
-4.6155,2.0513,-11.7949,-2.0513,-34.3591,-27.1797,10.769,-7.6924,18.4614,17.436,3.5898,-2.0513,52.8203,26.1538,
0.51294,-0.51294,-12.8206,-4.6155,-25.1282,-22.564,3.5896,-13.3333,11.7952,10.2566,4.1028,-6.6667,49.7439,14.8718,
1.282,-1.282,-13.5898,-5.3845,-23.8462,-28.4617,3.8459,-19.231,13.5896,14.1023,6.4099,-1.7952,51.5383,13.5896,
-11.282,-4.1025,-19.4871,-9.7437,-38.8462,-41.0256,4.1025,-13.8462,22.564,22.564,11.2822,4.6152,56.4102,22.564,
-12.3077,-6.1539,-17.9489,-9.7438,-46.6669,-37.9489,6.1539,-9.7438,25.6407,23.0768,10.2565,7.692,55.8971,23.0768,
0,-3.5898,-13.8462,-3.5898,-31.6669,-29.7437,10.2563,-12.3079,17.436,15.8975,0,5.1279,54.3589,18.9741,
1.282,-3.3333,-11.0256,-1.282,-16.6669,-29.4871,3.3333,-14.615,6.9231,10.0002,-6.4099,4.8718,47.949,18.718,
-2.5637,-4.615,-3.5896,-1.0256,-17.4358,-27.1792,1.5388,-12.3074,9.7439,13.8464,1.0256,7.1799,49.7439,20.5129,
-2.3076,-0.76929,-3.3333,0.76929,-20.769,-31.5383,14.6155,-5.3845,19.7439,24.3591,4.8718,-1.282,63.8464,26.4104,
1.5383,-3.0769,-8.718,0,-26.6667,-42.5642,17.436,-9.2307,17.436,20.5127,0,-8.718,66.1538,23.0771,
5.1287,-6.6663,-1.0256,1.0256,-19.9998,-35.8972,7.6926,-19.9998,6.1541,6.6667,-1.5383,-1.0256,52.8206,13.3337,
1.7949,-3.8462,1.2822,-3.8462,-15.1279,-31.5383,5.3848,-17.1794,7.9487,7.9487,-3.3335,-1.2822,51.0259,13.5898,
1.0258,-0.51282,-1.0255,-3.5897,-24.1024,-39.9999,20.0001,-4.6154,22.9487,22.9487,0.51282,-4.6154,66.0259,27.1798,
1.2821,-4.8717,-5.8973,-1.2821,-34.6154,-47.4359,19.7438,-6.923,26.923,28.9742,3.8461,-3.3334,73.59,28.4615,
0.25635,-8.4614,-6.4102,-0.25635,-27.9487,-42.3079,4.7438,-16.6667,12.0513,15.6411,0.76904,-2.8208,68.9741,16.1538,
2.0515,-1.0256,-2.5637,6.6667,-17.4358,-33.333,1.0256,-11.7947,9.7439,9.2312,-1.5383,-4.615,61.5388,14.3591,
0,1.5386,-11.7949,0,-21.0256,-35.8975,11.7949,0,20.5127,22.0513,0,-1.0259,65.6411,23.0767,
-3.8462,-8.9744,-15.1282,-12.564,-23.8462,-39.2307,15.6409,-3.3333,24.8718,26.9231,6.9231,3.3333,77.1794,22.3079,
0,-9.231,-2.0513,-6.1538,-14.3591,-32.3079,7.1792,-16.9233,16.9229,16.4102,8.7178,0,72.8203,13.333,
-1.0256,-6.1541,-3.0769,1.5383,-16.9231,-34.3591,2.051,-19.4871,11.7947,9.2307,1.0256,-2.0515,61.0256,9.7434,
-6.6665,-10.2563,-18.0769,-0.5127,-25.1282,-41.0256,6.6665,-10.769,15.8975,14.3589,0.5127,3.0771,65.1284,15.8975,
-6.1538,-9.231,-24.1025,-0.5127,-20.5129,-36.4104,0.5127,-9.7437,12.8203,12.8203,1.5386,3.0767,67.6924,18.4614,
-2.0515,-1.0256,-11.7947,1.0256,-20,-32.8206,-2.5642,-12.8206,16.4104,13.3333,4.1028,3.5896,66.6667,18.4617,
-4.6152,-2.564,-7.1797,-0.5127,-25.6411,-45.1282,1.5386,-15.8975,18.4614,15.3848,1.0254,0.5127,67.1792,14.8716,
0,-6.1538,-1.0259,9.2305,-13.8462,-46.6667,1.0254,-16.9233,6.6665,6.6665,-4.6157,0,67.1792,7.6924,
0.25635,-7.436,-0.76904,7.436,-19.231,-44.8718,0.25635,-16.6665,5.3848,4.8716,-7.9487,-0.25635,67.436,7.436,
-2.564,-3.5898,-12.8206,0,-34.231,-46.6667,7.6924,-12.8206,18.4614,16.9233,0.5127,0,71.2822,19.4873,
-2.0515,-2.0515,-17.9487,0.5127,-35.3848,-49.231,7.6924,-11.7949,18.4614,16.4102,6.1538,-0.5127,66.1538,20,
0,-0.51318,-6.667,5.1279,-20.3848,-44.1028,0,-9.231,7.1792,7.1792,-3.0771,7.6924,58.9741,10.769,
-4.615,-1.0256,-3.0769,1.0256,-14.3586,-38.4614,1.0256,-7.1794,7.1799,8.2053,-5.6409,11.2825,65.1287,14.3591,
-4.3586,-2.8206,-6.9231,-1.282,-17.6921,-40.769,6.4104,-11.5383,11.0256,13.5901,2.8206,1.282,69.4875,18.718,
0.25635,-2.8208,-3.3335,4.8716,-16.1538,-40.7693,-1.2822,-18.7183,0.25635,7.4355,-0.25635,4.8716,57.6924,12.564,
-7.9487,-6.9233,-5.3848,1.2822,-24.8718,-39.7437,0.25635,-14.6152,5.3848,8.9741,-0.25635,13.0767,57.1797,14.1025,
-18.718,-13.5898,-14.1028,-3.8462,-37.1797,-46.9231,4.8716,-8.4614,14.6152,12.564,3.8462,5.3843,65.3843,15.1279,
-9.7439,-9.7439,-6.1541,6.6667,-25.1284,-42.5642,-2.5642,-10.2566,3.0769,5.6409,2.5642,2.5642,61.5383,8.2048,
-7.1794,-7.6926,2.051,8.2048,-24.1028,-41.5386,-4.6155,-20.0002,-1.0256,1.5383,1.0256,2.051,61.0256,7.1794,
-14.6155,-5.8975,0.25635,3.8462,-36.6667,-48.9744,-0.25635,-15.1282,13.9744,11.0259,2.3076,-1.7949,69.4873,14.6152,
-13.0769,-3.8462,-2.8203,5.8975,-35.6411,-48.9744,3.3335,-7.436,20.769,16.6665,1.2822,-1.2822,68.4614,14.1025,
-10.769,-7.1792,-2.0513,5.1284,-29.7434,-39.4871,0.5127,-13.8462,11.2822,10.7695,0.5127,-0.51269,63.5898,10.7695,
-13.8462,-7.6924,0,4.6152,-29.2307,-36.9231,-4.1025,-16.9231,8.7178,9.7437,5.1284,0,67.1797,15.8975,
-9.4868,-6.4102,-2.3076,6.4106,-26.4102,-41.7947,-2.3076,-13.5894,12.5645,10,9.4873,2.3076,67.436,17.6924,
-7.1797,-6.6665,-9.231,1.5386,-27.1794,-46.1538,-1.0259,-13.3335,10.2563,5.6411,3.5898,1.0259,63.5898,13.3335,
-7.9487,-7.436,-2.8203,1.2822,-27.9487,-45.3845,3.3335,-11.5386,16.1538,11.5386,2.8203,-1.2822,71.0259,13.5898,
-7.1797,-10.2568,7.6919,10.2563,-13.8462,-40.5129,-4.6157,-19.4873,5.6406,4.1025,2.0513,-2.0513,62.0513,8.2051,
-0.5127,-1.0259,15.8975,20.5127,0,-28.7178,-6.6665,-20,-4.1025,0,3.0767,1.0254,53.8462,7.6924,
-8.4614,-4.8721,2.8203,6.4102,-15,-37.6924,-0.25635,-15.1284,5.3848,7.436,0.25635,-8.4614,62.8203,8.9741,
-11.5386,-6.9231,-2.8206,2.8206,-30,-43.3333,3.8459,-11.0256,18.718,17.6921,3.3333,-4.3591,75.6409,15.6409,
-10.2563,-4.6152,1.5386,10.2563,-31.7949,-45.1282,-1.5386,-14.8718,12.8203,11.2822,1.5386,-3.0771,69.231,11.7949,
-1.5388,1.0256,8.2048,12.8201,-23.0771,-45.6414,-1.0256,-12.3079,8.7175,3.0769,-1.5388,-8.718,62.5637,5.6409,
3.333,0.25635,9.4868,8.4614,-22.8208,-45.8977,-1.7949,-16.1538,3.333,-0.25635,-5.8975,-12.0513,59.2305,2.3076,
2.0513,-5.6411,6.667,5.6411,-17.9487,-42.564,-2.0513,-22.564,4.1025,4.1025,-4.6152,-5.6411,62.0513,6.1538,
-4.615,-7.6921,-5.1282,1.0256,-24.1023,-42.564,1.0256,-16.4102,9.7439,8.718,2.0515,-1.0256,68.2053,9.2312,
-1.7949,-7.9487,-7.4355,1.7949,-28.9741,-42.3076,7.436,-17.1794,8.4619,5.3848,7.9487,-4.8716,68.4619,7.436,
11.2822,-4.1025,7.5645,13.8462,-13.9741,-31.7944,3.5898,-32.1794,-3.5894,-2.0513,2.0513,-5.6406,58.9746,5.6411,
9.4871,1.7947,14.1028,18.2053,-2.3079,-27.4358,-4.3591,-47.1794,-4.3591,0.25659,-6.4104,-0.25659,56.6667,10.5129,
-5.5129,-2.0513,0,10.2563,-17.3079,-39.4871,0,-62.1794,7.6924,7.1797,-0.5127,3.5898,59.4873,11.2822,
-11.282,-8.2048,-4.6155,6.6667,-32.3079,-45.6409,-1.0256,-77.1794,3.0769,1.0256,1.0256,1.0256,44.4873,1.5388,
0.76904,-0.25635,5.8975,12.564,-17.3079,-34.6155,-2.3076,-92.1794,0.25635,-1.2822,-0.76953,5.3843,31.5381,7.9487,
-1.7947,-2.8206,3.8464,10.0002,-18.2048,-35.6409,-1.282,-105.8972,1.282,1.7952,-6.9231,3.8464,27.4358,10.5129,
-3.3335,-2.3076,8.9741,17.1792,-20.7695,-30.5129,0.25635,-109.4873,-4.3589,5.8975,-0.25635,6.4102,19.2305,8.4614,
-1.7949,0.25635,16.1538,20.2563,-16.667,-30,-3.3335,-113.0771,-7.9487,-0.25635,4.8716,4.3589,10,5.3843,
-5.1284,0,10.2563,14.3589,-24.6155,-42.0513,0,-120,1.0254,3.0767,-3.5898,-3.5898,9.7437,6.1538,
-1.0256,0.51294,17.9485,22.5642,-16.4104,-34.3591,-0.51294,-126.1538,-2.5642,5.6409,-6.1541,4.6155,12.3079,6.6667,
4.1025,-2.564,31.2817,28.7178,-1.5386,-22.0513,-7.1797,-130.7693,-9.231,-0.5127,0.5127,14.8716,13.8462,5.1279,
-9.2307,-7.1794,16.2817,13.7178,-16.5386,-37.0513,-5.1282,-134.3591,0.51294,1.0256,-0.51294,1.5383,18.9744,6.1536,
-9.4873,-1.7949,1.2817,-1.2822,-31.0259,-43.8464,9.8718,-129.4873,15.5129,16.0256,3.333,0.25635,31.5381,13.5894,
-9.7437,-7.6924,7.6924,11.7949,-31.7949,-42.0513,-2.564,-137.9487,2.0513,6.1538,-2.0513,4.1025,17.436,2.0513,
-7.1797,0,18.9741,26.7949,-27.1797,-37.949,-13.8462,-135.8977,-3.0771,2.564,0,4.1025,10.769,1.0254,
-6.4102,2.3076,9.4873,17.6924,-26.9231,-40.769,-5.8975,-138.2051,1.7949,3.3335,-1.7949,-4.8716,19.231,4.3589,
-3.0767,-2.564,13.3335,12.3076,-17.9487,-37.4358,0.5127,-144.6152,0.5127,0.5127,-7.6924,-0.5127,21.5386,2.564,
-5.6409,-4.6155,18.9744,15.3845,-14.8718,-33.8462,-1.0256,-144.1025,3.5896,1.5383,-5.6409,5.1282,14.8718,1.0256,
-12.3074,-2.5642,4.1028,6.6667,-23.0769,-38.9744,-0.51294,-141.5383,9.2307,5.1282,0.51294,-5.1282,20.0002,3.5901,
-3.3333,0.25659,5.8972,11.5383,-8.0769,-34.6155,-2.3079,-143.3333,-0.25659,0.76929,0.25659,-8.9744,23.8459,0.25659,
10.2563,6.6665,20.8972,26.5383,6.9231,-21.5386,-4.6152,-140,-2.564,0.5127,-0.5127,-1.5386,22.0513,-1.0254,
2.5642,6.6667,22.0515,18.9744,-8.0769,-27.1794,-6.6667,-140,3.5896,-0.51294,-4.1023,-10.7693,17.949,0.51294,
-5.6409,-0.51294,7.0515,3.9744,-23.0769,-40.5127,0.51294,-145.6409,6.1541,2.0515,-4.6155,-18.9744,19.4871,0.51294,
-0.25635,-0.25635,9.4873,11.0259,-13.5898,-35.6409,4.3589,-146.4102,0.25635,1.2822,1.2822,-5.3843,22.3076,-1.2817,
0.76929,4.3586,8.9744,17.6921,1.282,-28.4617,-1.282,-140.2566,-1.282,-3.3333,-1.282,5.3845,22.8206,-0.76929,
-1.7952,0.76929,-0.76929,6.4099,-13.718,-34.1028,4.3586,-136.6667,8.4612,3.3333,-3.3337,-3.3337,28.4612,2.8206,
-1.0259,0,4.6152,5.1279,-23.0771,-35.3848,5.1279,-142.5642,3.5894,2.0513,-2.5645,-13.3335,26.6665,0,
1.0256,7.1794,16.4104,15.8977,-18.9744,-32.8206,3.0769,-142.0513,2.5642,-1.5383,-1.0256,-9.2307,27.1794,-1.0256,
-1.2822,2.3076,13.5898,15.1284,-20.2563,-39.2307,1.2822,-137.6924,3.3335,1.2822,-1.2822,-2.3076,28.4614,-2.8203,
-0.51294,-1.5383,8.718,15.8977,-12.3074,-33.8462,0.51294,-134.3589,-1.5383,3.5896,4.1028,7.6926,29.7439,-1.0256,
-4.8721,-4.3589,1.7949,10,-22.8208,-35.6411,0.25635,-133.0771,3.8462,-0.25635,6.4102,0.76904,32.564,-0.25635,
-3.0771,-5.6411,0,3.5898,-32.8206,-45.1284,0,-128.718,10.769,0.5127,3.0767,-4.6157,34.3589,2.0513,
-2.8203,-7.9487,2.8208,4.8721,-27.9485,-45.3845,0.25635,-127.9485,4.8721,4.8721,-0.25635,-0.25635,31.5386,2.8208,
-6.667,-10.2563,4.1025,9.7437,-23.0771,-38.9744,0.5127,-132.3079,2.564,0,0,-1.5386,28.7178,0.5127,
-3.3333,-6.9231,4.8718,12.0515,-20.2561,-33.5896,6.4104,-126.4102,7.4358,0.76929,-0.76929,-2.8206,31.0256,5.3845,
-1.0256,-10.2561,1.0256,5.1282,-23.5896,-37.4358,6.1541,-126.6665,3.5901,4.1028,-5.1282,-3.5896,29.2307,2.5642,
13.8462,1.0259,16.0256,20,-8.5896,-26.1538,-0.5127,-126.1536,-3.5894,0,0,5.1284,28.7183,-1.5381,
14.6155,5.3845,22.3079,27.4358,6.4104,-24.8718,-5.3845,-116.1538,-7.4358,-7.4358,-2.3079,2.3079,25.3845,-2.3079,
-0.38452,-6.1538,7.3079,12.4358,-8.5896,-39.8718,5.1284,-101.1538,4.1025,2.564,-7.1797,-6.6665,29.231,2.0513,
-0.76904,-0.25635,-3.8462,11.0259,-23.5896,-36.6665,10,-86.1538,17.1797,16.1538,-2.8203,0.25635,39.7437,8.9746,
2.564,3.0767,0,18.4614,-17.436,-25.1284,-5,-85.1284,3.0767,1.1538,-6.667,0,29.2305,-1.5386,
3.5894,0,5.1279,20,-11.7949,-24.1025,-3.5898,-77.949,0.5127,0,-1.0259,-0.51318,27.6919,0.5127,
-2.0515,-10.2566,-1.5383,10.7693,-26.7949,-39.1025,1.5383,-67.1794,8.718,7.1794,5.1282,-6.1541,34.8718,4.6155,
-1.282,-9.4871,5.3845,12.051,-24.3591,-46.4104,-2.3079,-65.3848,8.4617,5.3845,6.4104,-1.282,34.1023,1.282,
0.51294,-2.5642,16.9231,14.8718,-9.3591,-31.4104,-2.5642,-64.6155,-2.5642,2.051,5.6409,10.7693,25.6409,-0.51294,
-3.5896,-9.2307,1.9231,-0.12817,-5.6409,-31.2822,1.0256,-63.0769,-1.0256,3.5896,2.5642,6.6667,25.1282,1.5383,
-1.0256,-7.6921,-8.718,-4.6155,-15.3845,-37.9487,6.1541,-52.8206,12.8206,13.8464,5.6409,1.0256,37.4358,10.7693,
5.3848,-1.2822,-0.76904,6.9233,-12.564,-34.1025,-1.2822,-52.0513,7.436,13.0771,0.76904,-1.2822,32.0513,7.436,
12.0515,2.3079,6.9231,13.5901,-2.3074,-29.4871,-4.8718,-52.564,-3.8459,2.8206,-6.4099,0.76929,19.7439,-0.76929,
9.4871,3.8459,2.8206,11.5383,-7.9485,-30,-1.7947,-44.3589,-0.25659,0.25659,-4.8718,1.7947,21.282,-0.76929,
3.8462,-0.25635,0.25635,9.4868,-11.0259,-30.5129,-2.3076,-44.8718,4.3589,1.2817,-0.76953,-1.7949,26.4102,0.25635,
3.0769,1.0256,0.51294,9.2307,-5.1282,-29.7437,-1.0256,-44.1025,-0.51294,0.51294,-4.1028,-8.2053,27.1794,1.5383,
6.1538,6.1538,0,10.2563,-3.5898,-27.1797,4.6152,-36.4104,-2.0513,0,-4.6157,-11.7949,26.1538,2.564,
11.7947,-0.51294,8.2053,13.3333,2.051,-26.6667,0.51294,-40.5129,-3.0769,-2.5642,1.5383,-3.0769,18.9744,-5.6409,
15.6409,-2.3079,14.6155,13.5896,5.3845,-27.4358,-5.3845,-40.7693,-4.3591,-2.3079,2.3079,9.4871,18.2048,-6.9231,
4.1025,-3.0771,0,0.5127,-9.6155,-38.4614,1.0259,-36.9231,0,2.0513,-4.1025,-2.0513,26.6665,2.0513,
-0.51294,-1.0256,-1.5383,5.6409,-24.6155,-40.5127,8.718,-29.7437,10.7693,11.282,0.51294,-7.1794,28.718,10.7693,
2.5642,-4.6155,3.5896,6.1536,-23.5896,-37.436,-4.6155,-31.7949,-1.5383,2.5642,2.5642,-2.0515,15.3845,1.5383,
14.6152,-4.3589,3.8462,-0.25635,-8.5896,-32.0515,-1.2822,-28.9746,-4.3589,3.8462,4.3589,2.3076,24.8716,0.25635,
15.3848,-5.1284,-0.5127,-3.5898,6.4104,-33.8462,8.2051,-27.6924,0.5127,11.2822,-1.0254,-1.0254,32.3076,3.0771,
5.3845,-5.3845,4.3586,-0.76929,-2.3079,-35.1284,6.9231,-23.8464,-0.76929,6.9231,-2.8206,4.8718,22.3074,0.76929,
-0.5127,-3.5898,3.0767,1.0254,-12.8208,-40,-1.0259,-17.436,0.5127,1.0254,-2.564,5.6411,19.4873,1.5386,
4.1025,0,-0.51318,5.6406,-7.6924,-37.949,0,-18.4619,0,2.0513,-1.5386,-4.103,24.1025,3.0767,
4.6157,-2.564,5.6411,6.667,2.0513,-35.3845,4.1025,-26.1538,-4.6152,-2.0513,3.0771,-8.2051,22.5645,-3.0767,
-1.0259,-5.1284,6.6665,3.5898,1.0254,-35.8975,2.564,-24.1025,0.5127,-1.0259,3.5898,-2.0513,25.6411,-0.5127,
-3.3335,-5.3848,-4.8716,-0.25635,-8.4614,-33.0769,2.8203,-15.6411,11.0259,8.9746,0.25635,1.7949,27.9487,13.5898,
-4.1028,-6.1541,-5.6414,-1.0256,-7.6926,-32.3079,2.5637,-14.8718,9.7434,7.6921,1.5383,1.0256,25.6409,12.3074,
-3.5896,-6.6663,-5.1282,-1.0256,-5.6409,-30.769,2.5642,-13.3333,9.2312,7.1799,3.5901,1.0256,23.5901,11.2825,
-3.5896,-6.6667,-4.6155,-1.0256,-4.1023,-29.2307,3.0769,-11.7947,8.718,6.6667,5.6414,1.0256,22.0515,10.7693,
-3.3333,-6.4104,-3.8464,-1.282,-2.3079,-27.436,3.8459,-10.0002,7.9485,6.4104,7.4358,1.282,20.7693,9.9998,
-3.0769,-6.6667,-4.1028,-1.5383,-1.0256,-26.1541,4.1023,-8.718,7.1794,5.6409,9.2307,1.0256,18.9744,9.2307,
-4.3589,-7.9487,-4.3589,-2.3076,0.25635,-25.8977,3.333,-8.4619,5.8975,4.3589,10,-0.25635,15.6411,6.9229,
-1.7947,-1.282,-2.3079,1.282,-1.7947,-23.3333,1.282,-8.9744,5.8972,7.9485,6.9231,-7.949,9.4871,4.8718,
-7.436,0.76904,-2.3076,4.3589,1.7949,-27.436,-5.3848,-12.0513,-0.76904,1.2822,5.8975,-6.9229,7.436,2.3076,
-5.1282,1.5383,-1.5383,8.2053,7.1794,-20.5129,-2.5642,-9.2307,-4.1028,2.051,3.5896,-6.1541,7.6921,3.0769,
-5.8975,-0.76953,-5.8975,6.9229,0.25635,-18.7183,1.2817,-10.5132,0.25635,6.4102,-0.25635,-13.0771,8.9741,2.3076,
-5.8975,-0.25635,-6.4102,7.436,7.436,-17.6924,1.2822,-7.4355,0.25635,2.3076,-0.25635,-4.8716,11.0259,3.3335,
0.76929,4.8718,-0.76929,9.9998,22.436,-10.0002,-0.76929,-0.76929,-10.0002,-6.9231,-2.8206,1.7947,6.9231,3.3333,
-0.76904,1.2822,1.7949,9.4873,21.2822,-11.0254,0.76904,-5.3848,-7.436,-4.8716,-2.3076,-5.8975,6.9233,2.3076,
-8.718,-5.1282,0.51294,6.6667,8.2053,-12.8206,-0.51294,-10.7693,-0.51294,0.51294,1.5383,-1.0256,13.3333,6.6667,
-7.1797,-2.0513,-2.0513,8.7178,15.8975,-6.667,-2.0513,-4.6157,-2.0513,2.0513,4.1025,11.2817,13.8462,8.7178,
-5.6411,-4.1025,-7.1797,8.7178,15.3843,-14.8721,-2.0513,-2.0513,-3.5898,2.564,2.0513,2.564,11.2817,2.0513,
-6.1538,-3.5898,-4.1025,8.2051,8.7178,-24.1025,0,-4.6152,-1.5386,4.6152,5.1279,0,16.4102,7.1797,
-9.231,-8.7178,-5.1284,-0.5127,4.1025,-30.2563,0.5127,-13.3335,-4.6152,2.0513,6.6665,1.0254,13.3335,5.6411,
-4.1028,-11.282,-2.0515,-1.0256,5.6409,-31.2822,5.6409,-7.6921,1.0256,8.2048,11.282,-1.5383,17.4358,2.5642,
-5.1284,-11.2822,-5.1284,1.0254,-0.51269,-36.9231,2.564,-2.564,3.5898,10.2563,8.2051,-2.0513,19.4873,0.5127,
-10.5129,-11.5383,-11.5383,-2.8206,2.3079,-35.1282,-0.25659,-8.9744,0.25659,3.3333,3.3333,4.3591,16.1541,2.3079,
-2.3076,-3.8462,-3.8462,2.8203,17.3079,-20.1282,-0.25635,-7.436,-2.8208,0.25635,8.4614,8.4614,15.1279,5.3848,
0,-1.0259,-0.51318,12.8203,19.4868,-7.1797,-6.1543,0.5127,-8.2056,0,3.0767,-2.0513,12.3076,2.0513,
-2.0513,1.5386,0.5127,18.9741,4.4868,-20,-1.5386,4.6152,-2.0513,5.1279,-2.564,-3.0771,14.8716,8.2051,
-0.76929,2.8206,4.8718,16.1541,-1.7947,-32.051,-3.3333,-3.3333,-4.3591,2.8206,-3.3333,0.76929,14.1028,7.4358,
1.7952,0.76929,5.3845,12.5642,6.4104,-33.0769,-4.3586,-7.9485,-13.0769,-3.8459,1.282,-0.76929,11.5383,-2.3074,
-1.5386,0.5127,-3.0771,9.2305,4.1025,-31.7949,0.5127,-4.6157,-12.3081,-2.5645,6.1538,0,11.2817,0,
-2.564,-3.0767,-6.6665,0,0,-31.282,2.5645,-7.1792,-1.5381,4.6157,9.231,7.1797,19.4873,7.1797,
0,-6.6665,-3.0767,-3.0767,4.6157,-34.3589,0,-13.333,-2.0513,2.0513,3.5898,5.6411,20.5127,3.5898,
2.564,-1.0259,1.0254,9.7437,12.3076,-32.8208,2.0513,-4.6157,-8.7183,-2.0513,-0.5127,-0.5127,12.3076,0.5127,
2.8203,-2.8208,2.8203,12.564,11.0254,-34.6157,0.25635,-3.8462,-10,-5.8975,1.2817,-2.8208,7.9487,-0.25635,
5.1287,-3.5896,1.5388,4.6155,7.6926,-36.4099,-3.0769,-9.2307,-8.2048,-3.0769,1.0256,-1.0256,15.385,1.5388,
1.0256,-5.1282,-5.1282,-0.51294,8.2053,-33.8459,0.51294,-4.1028,-5.6409,2.051,2.5642,-2.0515,22.051,4.1023,
-5.1282,-11.7947,-5.6409,-0.51294,10.7693,-29.2307,-3.0769,1.0256,-7.6921,0.51294,5.6409,1.0256,16.9231,2.0515,
-2.0513,-9.7437,-2.0513,1.5386,12.8203,-31.2822,-2.5645,0,-5.6411,0,5.1279,3.0767,17.4355,5.1279,
-2.0513,-9.231,-12.3081,-3.0771,10.769,-38.9746,6.6665,2.0513,0,0,3.5894,-4.6157,22.0513,9.7432,
-1.7949,-7.9487,-12.564,0.25635,7.436,-31.5386,4.3589,9.4873,-2.3076,-0.25635,4.8716,-6.9229,21.2822,8.4614,
1.0256,-5.6414,2.436,9.7434,5.6409,-25.6414,-2.0515,4.6155,-10.7693,-2.5642,-1.0256,-4.1028,16.9231,1.5383,
2.3076,-3.8462,6.9229,13.0767,6.4102,-29.4873,0.25635,-0.25635,-8.4614,-0.76904,-4.8721,-3.8462,16.6665,1.7949,
3.3333,-1.7947,0.76929,9.4875,6.4104,-26.4099,-1.282,5.385,-6.9231,-0.76929,-1.7947,-5.8972,19.2307,6.4104,
1.5386,-4.6152,-0.5127,3.0771,2.0513,-28.2051,-1.5386,5.1284,-8.7178,-6.6665,0.5127,-10.2563,19.4873,4.6157,
0,-2.0513,-2.0513,0,0.5127,-33.3335,7.1792,2.564,-2.564,-3.5898,4.6152,-8.7178,21.0254,7.6924,
0.51294,-1.5383,-12.8206,-0.51294,5.6409,-29.2307,1.5383,3.5896,-6.6667,-1.0256,2.5642,-4.6155,19.9998,5.6409,
6.1538,-1.5386,-9.7437,8.2051,15.3843,-17.436,-3.5898,8.7178,-11.7949,1.5386,-2.0513,-1.5386,17.9487,2.0513,
1.0254,-0.5127,0.5127,12.8203,12.8203,-20.5127,-0.5127,6.6665,-13.3335,-3.0771,-5.1284,-5.6411,12.3076,1.5386,
-5.8972,-2.3074,-0.76929,2.8206,0.76929,-32.0513,7.949,3.3333,-3.3333,-0.76929,2.3079,-9.9998,20.7693,10.0002,
-4.8716,-10.5127,-13.0767,-11.0254,-1.7949,-39.7434,10.5127,3.3335,1.7949,2.3076,6.9233,-7.9487,31.5386,12.564,
-0.51294,-8.718,-8.718,-6.1541,7.6921,-37.436,4.1023,5.6409,-2.5642,-3.0769,9.2307,0.51294,24.1023,7.6921,
-4.3589,-4.3589,-2.3076,-2.8203,3.3335,-36.6667,5.3848,8.9746,-0.25635,-4.3589,9.4873,0.25635,20.769,10,
-5.6409,-1.0256,-8.2048,-5.1282,-3.5896,-34.8716,10.7693,13.3333,3.0769,1.0256,2.0515,-4.1023,31.7952,16.4104,
5.1279,0,-7.6924,-1.0259,2.564,-26.1541,9.2305,12.3076,0,0,0,-3.5898,32.3076,13.8457,
4.8716,-2.8208,-4.3589,0.25635,5.8975,-24.8721,-0.25635,5.8975,-6.4102,-7.436,2.3076,-5.3848,22.3076,6.4102,
0,2.0513,-3.0771,-1.5386,0.5127,-31.7952,0,9.7432,-6.1538,-4.6157,5.6406,-4.6157,24.1025,11.2817,
-1.5386,1.5386,-3.0767,-1.5386,-3.5898,-35.3845,6.1538,10.2563,-3.5898,1.5386,6.6665,-4.1025,24.1025,13.3335,
-2.3079,-4.3591,-3.8459,1.282,-0.76929,-30.5129,0.76929,6.4104,-4.3591,2.3079,2.3079,-4.8718,18.2053,9.4871,
0.25635,-3.3335,-8.9746,-0.25635,1.2822,-29.4873,-1.2822,6.9229,1.7949,8.4614,-2.8203,-7.9487,23.3335,12.0513,
5.6411,0,-7.1792,1.0259,8.2056,-28.7178,-3.0767,3.5898,-8.2051,0,-5.6406,-8.2051,20,3.0771,
6.9229,2.8203,-0.25635,9.4873,16.1538,-21.2822,-3.3335,7.9487,-21.7949,-11.0254,-3.3335,-5.3848,11.0259,0.25635,
-0.25659,0.25659,-6.9231,4.3591,1.1538,-27.4358,5.8972,12.5642,-6.9231,-2.8206,-0.25659,-10.5129,18.718,10.5129,
-3.0769,0.51294,-11.282,-0.51294,-11.282,-35.3845,9.7439,7.6926,6.1541,4.6155,-2.5642,-14.3586,26.6667,12.3079,
-1.282,2.8206,-2.3074,3.3333,-0.76929,-26.9231,4.8718,6.4104,0.76929,-1.7947,-3.8459,-6.4099,23.3333,6.4104,
-2.564,-0.5127,-4.6152,0.5127,-2.0513,-26.6665,1.0254,9.231,-3.5898,1.0254,2.564,-6.1538,24.1025,5.6411,
-3.8462,-3.8462,-14.6157,-3.8462,-12.5645,-37.6924,4.3589,7.9487,3.8462,8.9741,6.4102,-11.0259,25.8975,10.5127,
-3.8464,-3.8464,-9.4875,-3.3333,-15.6414,-40.2566,4.8718,3.8459,6.4099,4.8718,3.3333,-6.9231,20.2561,5.3845,
-1.0254,0,-1.5386,2.564,-20.5127,-35.8975,-1.5386,8.2051,0,4.1025,1.0259,-3.5898,17.9487,1.5386,
-1.282,1.282,-6.9231,3.8464,-22.3074,-35.1282,-1.7947,10.0002,-0.76929,10.0002,0.76929,-7.9485,24.3591,6.9231,
-0.25635,-0.76904,-3.3335,6.4102,-7.3074,-24.8716,2.8203,5.3848,-0.25635,4.8721,0.25635,-5.3848,22.3076,7.436,
-1.5386,0,-3.0771,7.1797,1.0259,-19.4873,3.5898,7.1797,-2.564,0,-2.564,-2.0513,15.3848,5.6411,
-7.1797,-2.0513,-18.0771,2.0513,-13.9741,-34.4873,5.1279,13.333,2.564,4.6152,-2.0513,-8.7183,21.5381,8.2051,
-8.4614,-3.3335,-18.7178,0.25635,-28.9741,-42.3076,4.8716,8.4614,4.3589,2.8203,-0.25635,-13.0771,23.8462,5.3848,
-4.8718,-2.3079,-5.3845,0.76929,-19.7434,-32.5642,2.8206,7.4358,-0.25659,0.25659,1.282,-2.3079,23.3333,0.76929,
-5.8975,-1.7949,-7.9487,-0.25635,-21.7949,-38.2051,5.3848,19.231,0.25635,3.3335,1.2822,-0.25635,27.436,2.8203,
1.0256,2.5637,-8.718,4.615,-19.4875,-41.5386,7.6921,21.0256,-1.0256,-1.0256,-4.1028,-8.718,28.7175,4.615,
6.9231,0.76929,-0.76929,4.3591,-18.2048,-35.1282,6.4104,6.0256,-4.8718,-5.3845,-7.9485,-14.6155,27.4358,2.8206,
5.1284,0,1.5386,0,-21.0254,-40,6.1538,6.1538,-1.0254,-0.5127,-0.5127,-7.6924,29.7437,5.1284,
5.3845,0.25659,-0.25659,-0.25659,-14.6155,-43.3333,2.8206,16.1541,-5.8972,-2.3079,3.3333,-2.8206,25.3845,0.25659,
5.6409,-0.51294,-1.0256,2.5642,-11.7952,-34.8718,5.6409,15.8972,-3.5896,-2.5642,0.51294,-9.7434,22.051,1.5383,
-2.0513,0.5127,-12.8203,-0.5127,-26.7952,-36.9231,4.1025,14.3589,2.564,1.5386,-8.2051,-18.9744,23.0771,6.1538,
-0.25635,2.8203,-14.1025,-0.25635,-30,-38.718,1.2822,15.6411,0.25635,3.3335,-8.9746,-16.6665,21.7949,2.8203,
3.5896,1.0256,-11.282,-2.051,-18.9744,-34.8718,4.6155,13.8459,-1.0256,2.5642,-3.0769,-14.3591,20.0002,2.5642,
0,-5.6411,-21.0256,-9.7437,-23.0769,-35.3845,7.1797,12.3076,2.0513,3.0771,0,-16.4102,22.564,7.1797,
-2.3079,-5.3845,-23.3333,-9.4871,-24.8718,-33.0769,11.5383,18.718,9.4871,6.9231,2.3079,-8.9744,26.4104,10.5129,
-5.8977,-0.25659,-18.2053,0.25659,-21.2822,-34.1025,7.9485,20.2566,4.8718,4.8718,-4.3591,-8.4617,20.7693,7.9485,
-7.6924,0,-10.7695,5.1279,-29.7439,-38.9746,2.0513,19.4868,0,2.0513,-7.1797,-11.2822,16.9229,7.1792,
-0.51294,-1.5383,-3.5896,4.1028,-26.6667,-33.3333,3.5896,20.0002,1.5383,0.51294,-4.1028,-7.1794,23.0769,8.2053,
6.4104,-0.76929,0.76929,6.4104,-11.6667,-23.8464,-1.282,13.5896,-7.4358,-6.9231,-5.8977,-7.949,19.2307,1.282,
10.7693,-0.51294,-0.51294,6.1541,3.3333,-22.0515,0.51294,13.3333,-9.7434,-3.5896,-3.5896,-7.6921,13.3333,2.5642,
5.6409,-2.5642,-10.7693,-4.1028,0.51294,-33.3335,8.718,16.4099,-0.51294,6.6667,-6.1541,-9.7439,17.4358,6.6667,
0.5127,-1.5386,-8.7178,-0.5127,-12.3076,-40,11.7949,15.8975,4.6152,7.1797,-10.2563,-16.9231,23.5898,4.1025,
0.51294,-0.51294,1.0256,10.2566,1.0256,-37.4358,3.0769,13.8464,-7.6921,-4.6155,-10.7693,-20.5129,15.3845,-4.6155,
5.1279,-0.5127,0,7.1792,0.51269,-34.8718,1.0254,17.436,-7.1797,-2.0513,-6.1538,-15.3848,12.3076,0,
3.3335,-3.3335,-15,-3.8462,-9.4873,-35.6411,8.9746,20.769,7.8203,6.9233,-3.3335,-15.6411,25.3848,4.8716,
-5.3845,-1.282,-23.3333,1.282,-6.9231,-27.9487,4.3591,18.2053,1.7952,1.282,-4.8718,-12.051,26.4104,1.282,
-5.6409,5.1282,-18.4617,8.718,-5.1282,-17.9485,3.0769,18.9744,-3.0769,-1.0256,1.0256,-4.1023,20.0002,7.6921,
-4.3589,0.25635,-18.2051,-0.25635,-8.9746,-24.3591,6.4102,16.6665,0.76904,1.7949,-2.3076,-8.9746,15.1279,10,
-5.8975,-0.25635,-6.9229,0.25635,2.3076,-23.333,4.8721,16.1538,-2.3076,0.76953,-6.9229,-11.5386,12.0513,4.3589,
-8.9744,-0.76929,0.76929,2.3079,7.949,-19.7434,4.8718,20.7693,-5.3845,-1.7947,-2.8206,-8.9744,13.0769,3.3333,
-8.4617,-1.7952,-4.8718,-3.3333,-0.25659,-25.3848,7.9485,25.3845,0.25659,5.3845,2.8206,-4.3591,21.7947,9.4871,
-12.0513,-5.8975,-13.5894,-11.0254,-11.5381,-34.6152,7.9487,21.2822,8.9746,10,5.8975,-5.8975,24.8721,10,
-12.0513,-4.3589,-16.1538,-11.0254,-10.5127,-28.4614,8.9746,17.6924,11.0259,6.9233,5.8975,-8.4614,20.7695,4.3589,
-6.9233,0.76904,-16.1538,-4.3589,-0.76953,-17.1797,6.9229,20.769,-0.25635,2.8203,0.25635,-5.3848,18.2051,3.333,
-2.3076,0.25635,-7.9487,2.3076,4.8716,-17.6924,1.7949,23.8462,-6.4102,-0.25635,-5.3848,-0.25635,15.1279,7.9487,
-3.0771,1.5386,0.5127,4.6152,2.0513,-19.4873,-0.5127,21.5386,-3.0771,-3.5898,-5.1284,-1.0259,9.231,5.1279,
-5.6411,3.5898,-0.51269,4.1025,-1.0259,-15.3848,5.6411,21.0254,0.5127,-2.0513,-1.5386,-8.2051,9.2305,2.564,
-6.6667,3.5896,-3.5896,5.6409,6.6667,-13.3333,4.1028,18.4617,-4.1023,-4.1023,-4.6155,-13.8459,13.8464,4.1028,
-2.5642,10.7693,-0.51294,12.3079,16.4104,-9.2307,0.51294,22.051,-2.0515,-3.0769,-1.0256,-3.0769,21.0256,8.2048,
-16.1541,0.25659,-15.5129,-2.6921,1.4104,-24.2307,3.3333,17.1794,3.3333,-0.25659,0.25659,-7.4358,19.7434,0.25659,
-12.8203,-2.0513,-17.9487,-6.6665,-4.6152,-26.6665,6.667,21.0259,6.667,2.0513,7.6924,-10.769,23.5898,3.5898,
-4.1025,1.5386,-2.9487,3.5898,10.3848,-13.8462,-8.333,21.5386,-8.333,-12.9487,-1.5386,-6.6665,13.3335,2.0513,
-1.7947,7.4358,9.9998,6.9231,21.7947,-5.8977,-3.8464,21.282,-8.4617,-11.0256,-5.8977,-0.76929,17.6921,0.76929,
-6.9233,6.4102,-2.3076,-1.2822,6.7947,-15.6411,10,21.2822,-0.25635,1.7949,-4.3589,-8.9746,26.9229,5.3848,
-3.8459,2.8206,0.76929,-0.76929,7.949,-17.1794,6.4104,22.3079,-2.3074,-0.76929,-6.4104,-11.5383,18.718,7.949,
-2.8208,2.3076,5.3848,5.8975,17.6924,-17.1797,-3.3335,22.8203,-5.8975,-5.8975,-6.4102,-2.3076,13.5898,6.9229,
-9.231,4.1025,-2.564,8.7178,2.6924,-27.1797,-2.564,24.1025,1.5386,0,-0.5127,-3.0771,23.0767,9.2305,
-10.5129,1.7947,-6.9231,2.8206,-8.9744,-19.7434,-0.76929,24.8718,1.7947,0.76929,-1.7947,-10.5129,23.3333,8.4617,
-5.3848,6.4102,-9.4873,1.7949,1.7949,-4.7434,-5.3848,26.4102,-6.9233,-1.7949,-8.4614,-6.9233,13.0767,6.9229,
-1.282,13.5896,-16.1541,6.9231,-2.3079,10.2566,-1.7952,29.4871,-3.3333,1.282,-3.8464,-1.7952,17.6921,9.9998,
-5.6406,9.7437,-18.4614,3.0771,-17.3079,15.8975,-0.51269,28.7183,0,0,-1.0254,-7.1792,17.436,10.7695,
-3.0769,14.8718,-4.6155,7.1794,-32.3079,26.6667,-1.5383,31.282,-0.51294,-0.51294,0.51294,-2.0515,12.3079,11.282,
-2.8206,17.1794,2.8206,13.5896,-35.1282,28.9744,-10.0002,26.4104,-7.4358,-9.4871,-5.3845,-2.8206,8.9744,3.3333,
-2.0513,19.4873,2.0513,15.8975,-44.6152,28.2051,-6.6665,30.7695,-4.6152,-7.6924,-6.1538,-13.333,15.3848,5.6411,
-3.5894,14.3589,-7.1792,4.6157,-50.769,22.5645,0,31.2822,0,-2.0513,-2.564,-15.8975,16.9233,8.7183,
-1.0259,14.8716,-6.6665,3.5898,-35.769,24.6152,-2.0513,25.1279,-0.5127,-3.0771,-0.5127,-0.89746,18.4614,9.2305,
-1.5383,14.8718,-4.1028,4.1023,-26.1541,29.2307,-9.2307,23.5896,-10.2566,-15.3845,-14.3591,1.5383,12.3074,3.5896,
-2.5642,13.3333,1.0256,1.5383,-36.9233,31.282,-1.0256,31.7947,-5.6414,-6.1541,-8.2053,-3.5901,9.7434,6.1536,
-8.9746,10.5127,-2.8208,-0.25635,-44.8718,20.2563,-2.8208,28.9741,-4.8721,0.25635,0.76904,-0.25635,6.9229,5.8975,
-9.2305,11.2822,-0.5127,0.5127,-34.8716,14.8721,-5.6411,29.7437,-7.1792,-6.6665,-3.5898,7.6924,12.8208,6.1538,
-6.9231,9.4871,2.3079,-3.8459,-27.4358,22.8206,-2.3079,31.5383,-6.9231,-5.8972,-4.8718,4.3591,17.1794,5.8977,
-5.6409,7.1794,-2.5642,-2.5642,-31.282,20.5129,-3.0769,29.7434,-4.1028,2.5642,0.51294,-0.51294,14.8718,6.6667,
-12.564,6.9233,-8.4614,-2.3076,-46.282,5.5129,-6.9229,28.9746,-0.25635,2.3076,0.25635,-1.7949,10.5132,5.8975,
-12.3079,9.2307,-0.51294,0.51294,-39.4871,11.282,-11.7947,25.1282,-8.718,-6.1541,-4.6155,6.6667,3.0769,2.0515,
-9.7434,6.1541,0.51294,4.1028,-24.4871,25.6409,-13.3333,15.8977,-16.4104,-8.2048,-7.1794,7.1794,-0.51294,1.0256,
-13.0769,7.949,-8.4612,0.76929,-29.4871,21.282,-0.76929,22.8206,-1.7947,-1.7947,1.7952,-4.8718,11.0256,6.9231,
-20.2566,9.9998,-13.0769,-7.4358,-37.1794,13.5896,1.7947,24.3591,0.76929,-7.4358,-0.76929,-10.0002,9.9998,3.8459,
-12.3081,10.2563,-3.5898,-3.0771,-37.436,21.5381,0,23.5894,0,-7.1797,0,-3.5898,7.1792,5.1279,
-10.5129,5.8977,0.25659,1.282,-50,16.1541,-7.4358,24.8718,-4.8718,-9.9998,-0.25659,-14.1023,4.3591,3.8459,
-11.0256,10.0002,4.3591,3.8464,-43.8459,13.5901,-6.9231,25.3845,-8.4612,-11.5383,-3.3333,-12.5637,8.4617,3.3333,
-10.2563,6.6665,3.0767,0,-29.7437,14.8716,-4.1025,21.0254,-6.1538,-11.7949,-10.2563,0,9.7437,2.0513,
-9.9998,2.8206,1.7952,1.282,-29.4871,13.0769,-11.0256,22.3079,-7.4358,-14.6155,-12.051,-1.282,1.7952,5.8977,
-3.8459,6.4104,6.9231,10.5129,-24.8718,21.7952,-7.4358,23.8464,-8.4612,-13.5896,-5.3845,-0.76929,0.76929,12.0515,
-5.3848,6.9233,-1.7949,4.3589,-23.3335,22.8208,-1.2822,16.6665,-10,-11.0254,-12.564,1.2822,3.8462,11.0259,
-8.4617,12.051,-6.4104,-0.25659,-23.3333,17.6921,0.25659,21.7947,-2.3079,-1.7947,-12.0515,2.3079,11.5383,13.5896,
-8.718,14.3591,-1.0256,5.6409,-18.9744,23.0769,-5.1282,24.1023,-3.0769,-6.6667,-8.718,1.0256,7.1794,9.2307,
-4.8718,15.6409,-0.76929,5.8972,-16.6667,29.4871,-5.8977,25.3845,-8.9744,-9.4871,-6.9231,0.76929,2.3074,8.9744,
-0.25635,11.0254,-6.4106,-2.8208,-20.2563,19.2305,2.3076,27.4355,-3.8462,0.25635,-3.8462,-2.3076,10.5127,13.5894,
1.0256,5.6409,-3.0769,-4.6155,-17.4358,13.3333,1.5383,18.4617,-2.5642,-1.0256,-5.1282,-6.6667,12.8206,10.7693,
-0.51294,8.2053,0.51294,-3.0769,-17.4358,19.4871,1.0256,18.4617,-1.0256,-6.6667,-3.0769,-10.7693,8.2053,9.7434,
-4.6152,10.2563,-5.1279,-6.6665,-27.1794,15.3848,2.0513,24.1025,2.5645,-6.1538,-2.0513,-8.2051,7.1797,11.7949,
-0.5127,13.3335,0.5127,3.0771,-28.7178,11.2822,-2.564,18.9746,-3.5898,-7.6924,-10.769,-1.5386,3.5898,7.6924,
1.282,12.5642,10.0002,9.4871,-29.4871,11.0256,-4.8718,15.6409,-7.4358,-11.5383,-17.6921,-7.4358,-1.282,4.8718,
-5.3845,12.0515,2.3079,0.76929,-36.6667,6.9231,-2.3079,23.3333,-0.76929,-7.9485,-10.0002,-15.6409,3.3333,7.9485,
-7.436,12.564,-11.0259,-6.4102,-40.7693,3.8462,0.25635,22.8203,4.3589,-1.7949,-0.25635,-9.4873,8.4614,9.4873,
-3.0769,2.5642,-11.282,-8.718,-37.9487,2.5642,1.0256,13.8459,3.0769,-4.6155,-1.0256,-1.5383,6.1536,6.1536,
-2.5642,-0.51294,-5.1282,-5.1282,-40,0.51294,2.5642,23.5896,2.051,-4.1028,-5.6409,1.0256,6.1536,10.2561,
-0.51294,7.1794,0.51294,3.0769,-34.8718,7.6921,-1.0256,30.7693,-3.5896,-2.5642,-6.1541,-1.5383,5.1282,11.282,
3.5898,6.6665,3.5898,7.6924,-19.8718,17.9487,-8.7178,15.7693,-15.8975,-13.8462,-6.1538,-5.6411,-2.564,2.564,
1.5386,5.6411,-1.5386,3.5898,-18.4614,16.9233,-1.5386,18.4614,-9.7437,-14.8716,-4.1025,-2.0513,4.6157,6.1538,
-7.949,3.8459,-8.4617,-10.0002,-33.4614,5.3845,3.3333,30.5129,4.8718,-3.3333,-3.3333,-5.3845,17.1794,15.6409,
-9.231,7.1792,0,-7.6924,-33.8462,8.7178,-1.0259,29.7437,2.0513,0,-3.5898,-11.7949,13.333,17.9487,
-10,7.9487,3.8462,1.7949,-23.3335,14.1025,-1.7949,24.3589,-6.9229,-7.436,-3.3335,-7.9487,5.3848,12.564,
-7.436,10,-2.3076,3.8462,-31.5386,16.1538,0.25635,32.0513,-1.7949,-6.9233,-2.3076,-0.25635,8.4614,13.0767,
-1.2817,12.564,-2.3076,4.8721,-33.5896,17.6924,-6.9229,34.1025,-0.25635,-0.76904,-5.8975,0.25635,6.9233,15.1284,
-0.51269,7.1792,0.5127,7.1792,-26.1538,11.7949,-6.6665,26.6665,-2.0513,-0.51269,-7.1797,-0.51269,5.6411,12.8203,
-0.51294,4.6155,-1.0256,6.6667,-21.0256,10.7693,0.51294,27.6921,-2.5642,-4.1028,-2.0515,-1.0256,7.6921,11.282,
1.5386,3.5898,-2.0513,-0.5127,-26.1541,14.3589,-1.5386,32.3076,0.5127,-2.564,-4.6157,-11.2822,8.2051,13.8462,
1.7947,-0.25659,0.25659,-5.8977,-29.4873,11.5383,-6.9231,31.0256,1.282,-0.76929,-9.4871,-11.5383,8.9744,11.0256,
3.8464,-0.76929,2.8206,-2.8206,-14.4873,9.4875,-7.4358,23.3337,-7.9485,-10.5125,-6.9231,0.76929,6.4104,4.3591,
4.6155,2.0515,-0.51294,0.51294,-9.2307,8.2053,-0.51294,21.5383,-7.1794,-14.8718,-5.6409,-5.1282,6.1541,5.6409,
1.0256,7.1794,-4.1023,2.0515,-24.1023,4.1028,-1.0256,28.2053,-1.0256,-8.2053,-8.718,-20.1282,9.2307,8.718,
5.3845,8.9744,0.76929,-0.76929,-16.6667,7.9485,-2.8206,31.0256,-0.76929,-3.3333,-4.8718,-16.6667,12.051,7.9485,
4.6155,0.51294,-0.51294,-10.7693,-9.7434,8.718,0.51294,20.0002,-4.6155,-7.6921,-6.6667,-7.1794,7.6926,6.1541,
2.051,1.0256,-2.0515,-7.6926,-9.7439,10.7688,3.5896,18.4612,-1.0256,-4.6155,-5.1282,-1.0256,9.2307,13.3333,
-2.8203,0.76904,-0.76904,-3.8462,-8.9746,12.564,1.7949,23.3335,0.25635,-3.3335,-0.25635,-1.2822,8.4614,12.564,
-4.3591,-0.76929,-4.3591,-7.9485,-11.0256,13.0769,4.3591,27.9485,-1.282,-1.7947,0.76929,0.76929,9.4871,12.5642,
1.0256,1.5388,-2.051,-1.5383,-9.2307,12.3079,-1.0256,28.2053,-6.6663,-6.1536,-5.6409,3.5901,8.718,9.7439,
5.3848,4.8716,11.0254,8.9741,-5.3848,9.4873,-8.4614,21.7949,-11.0259,-13.5898,-9.4873,-1.2822,-0.76904,0.76904,
2.0513,6.667,6.667,4.6152,-16.9229,7.1797,-3.0767,24.1025,-5.6411,-7.6924,-9.2305,-8.7178,-2.0513,5.6411,
-3.3333,2.8206,-8.333,-4.8718,-25.8977,6.4099,3.8459,25.3845,1.282,-1.282,-8.9744,-14.6155,7.4358,11.5383,
-1.5383,1.5383,-11.282,-4.6155,-14.8718,8.2053,2.5642,19.4871,1.5383,-3.0769,-3.5896,-14.8718,12.3079,7.1794,
-3.5896,-1.0256,-6.1541,-4.1028,-16.9231,1.0256,1.5383,21.0256,2.051,-3.5896,2.051,-9.7439,10.7693,3.0769,
-3.0767,-2.0513,-6.1538,-5.6411,-26.6665,-2.564,12.3076,30.2563,12.3076,2.0513,5.6411,-5.1279,14.3589,7.1797,
-1.5383,1.5383,-4.6155,-8.718,-11.6665,4.6155,6.1536,23.0769,2.051,-7.6926,-2.5642,-13.3333,9.7434,1.5383,
0.76929,7.949,3.8459,-4.3591,-7.4358,14.1028,-0.76929,19.2307,-5.3845,-9.4871,-1.282,-10.5129,10.0002,2.3079,
-8.7183,0,0,-8.2051,-22.4358,0.5127,0.5127,22.0513,-0.5127,-2.564,0,-4.6157,11.7949,4.6152,
-6.9231,0.25659,7.4358,-6.4104,-21.7947,-2.3079,3.3333,27.4358,-0.25659,-3.3333,-1.7947,2.8206,12.051,4.3591,
0.25659,0.76929,13.0769,-5.3845,-6.7947,4.3591,-0.25659,24.3591,-8.4617,-12.5642,-4.3591,-0.76929,4.8718,-0.25659,
0.25635,0.25635,2.8208,-7.4355,8.2053,-9.4868,0.76953,18.7183,-8.9741,-11.0254,-5.8975,-10,-0.25635,0.25635,
4.3589,-0.25635,0.25635,-5.3848,23.2053,-24.4868,7.4355,17.1792,-3.3335,-7.9487,-8.9746,-11.5386,1.7949,4.8716,
11.0254,0.25635,7.9487,-2.8208,38.2053,-18.2051,4.8716,18.7178,-6.9233,-14.6157,-12.564,-7.436,-0.25635,2.8203,
12.3076,4.6152,11.2822,0.5127,50.2563,-6.6665,-1.0259,18.4614,-8.7178,-14.8716,-8.2051,-5.6411,2.0513,-0.5127,
9.231,0.5127,5.6411,-0.5127,43.5898,-17.436,1.0259,15.8975,-6.1538,-11.7949,-8.2051,-12.8203,5.1284,-2.564,
8.4614,0.25635,6.9233,-0.25635,43.8462,-20.769,8.4614,17.6924,-5.8975,-12.0513,-10.5127,-13.0767,3.8462,-1.7949,
2.564,0.5127,6.1538,-6.1538,41.5386,-17.436,11.7949,15.3848,-2.0513,-5.1284,-4.6152,-5.6411,11.2822,-0.5127,
-3.0769,-4.1028,-3.0769,-15.3845,30.7693,-27.1797,7.1794,13.3333,3.5896,0.51294,3.5896,-7.6926,19.9998,-0.51294,
1.0256,-2.5642,2.5642,-4.1028,31.7947,-24.6155,1.5383,14.3591,-6.1541,-9.7434,3.5896,-11.282,10.2566,-1.0256,
0.25635,-1.7949,10,5.3848,40.2563,-12.0513,5.8975,13.0771,-13.5898,-17.6924,-0.25635,-11.5386,1.2822,-1.7949,
-0.76904,-1.7949,5.8975,0.76904,37.1797,-10,9.4873,17.1797,-0.76904,-4.8716,-1.2822,-6.9229,13.5898,4.3589,
-1.5386,-6.6665,-4.6152,-8.2051,22.1797,-20,5.6411,16.9229,2.0513,1.5386,-5.1284,-7.6924,22.0513,8.7178,
1.7947,-3.3333,-2.3079,-2.3079,25.3845,-21.7947,12.051,18.718,-4.3591,2.3079,-1.7947,-2.3079,20.2566,12.051,
-2.0515,-1.0256,-3.5901,1.0256,25.1282,-22.5642,7.6921,21.5383,-7.1794,-1.5388,-1.0256,1.0256,11.282,6.1536,
-2.3076,-6.4102,-6.4102,-3.8462,18.2051,-20.769,3.3335,22.3076,1.2822,-1.2822,-2.8203,1.2822,15.1284,3.3335,
3.333,-8.4614,-0.25635,-5.3848,27.9487,-14.1025,1.2817,20.769,-3.8462,-1.2822,-8.4614,0.25635,18.7178,5.8975,
1.7947,-4.3591,1.282,-6.9231,29.4871,-16.1541,1.7947,20.7693,-5.3845,-1.282,-8.4617,-2.8206,14.6155,8.9744,
-3.3333,-2.8206,-2.8206,-9.4871,15.6409,-29.4873,4.3591,21.7947,4.8718,1.7947,-1.7947,-3.8464,18.2053,6.4104,
-0.25659,-3.8459,0.25659,-9.9998,21.282,-26.4104,1.282,18.2053,-3.3333,-3.3333,-1.7947,3.8459,18.718,0.25659,
-1.0256,-4.1028,3.5896,-15.3845,22.5642,-15.3845,1.0256,11.7947,-8.718,-6.1541,-5.1282,3.0769,15.3845,3.0769,
-4.3589,-1.7949,0.25635,-17.6924,7.5642,-21.2822,6.9229,14.6152,-0.25635,0.25635,-5.3848,-7.9487,19.7437,12.0513,
-1.0256,-4.1028,-1.0256,-18.9744,4.1023,-28.718,10.7693,20.5129,1.0256,2.051,-1.0256,-10.7693,23.0769,7.6921,
3.0771,-7.1792,8.7178,-18.4614,19.1023,-23.5898,10.769,17.436,-5.1279,-3.5898,0.5127,-8.2051,18.4614,-0.5127,
2.3076,-2.3076,10,-12.5645,28.4614,-17.6924,8.9741,16.6665,-7.436,-3.8462,-3.3335,-2.8208,17.1792,6.9229,
1.282,-4.8718,-1.282,-14.1023,24.3591,-19.2307,2.8206,19.7439,-9.4871,-4.8718,-10.5129,3.3333,19.7439,8.9744,
4.8718,-6.9231,1.282,-16.1541,28.9744,-14.1028,-0.76929,20.2561,-12.5642,-12.0515,-12.0515,4.8718,15.6409,0.76929,
7.6926,-1.0256,10.7693,-13.3333,27.6926,-14.8713,4.1028,13.8464,-11.7947,-11.7947,-10.7688,-6.1536,10.2566,1.0256,
4.6155,-2.5642,11.282,-16.4104,16.4104,-27.1794,6.6667,7.6921,-10.2566,-6.1541,-11.7952,-18.4617,14.3591,2.5642,
3.5898,-4.6152,10.2563,-16.4102,16.4102,-21.0259,5.1279,18.9741,-8.7183,-3.5898,-7.1797,-13.8462,23.0767,3.5898,
3.5898,-3.0771,2.0513,-14.8721,21.5386,-6.0259,5.6411,28.7178,-5.1284,-3.0771,-2.0513,-3.5898,24.1025,8.7178,
0.25635,-1.2822,-6.9233,-15.6411,16.6665,-2.3076,7.9487,21.7949,0.25635,-0.76904,-1.2822,-0.25635,23.8462,12.0513,
4.8721,-1.7949,3.8462,-11.5381,23.8462,-6.9229,5.8975,12.5645,-5.8975,-7.4355,-7.9487,-9.4868,22.3076,1.7949,
17.1797,2.3076,18.8462,-2.8203,38.8462,-2.3076,8.4614,15.6411,-8.4614,-14.1025,-5.8975,-14.6152,22.8208,-2.3076,
4.8718,-0.76929,17.6926,-10.5129,23.8462,-9.4871,8.9744,15.6414,-6.9231,-8.4617,-6.9231,-19.7434,27.4358,0.76929,
-6.4104,-8.9744,5.8972,-18.718,8.8462,-20.7693,11.0256,14.6155,-0.76929,0.76929,-8.4617,-22.8206,38.2048,2.3074,
1.282,-11.5383,3.3333,-19.2307,13.5896,-17.6921,7.4358,13.0769,-0.76929,-1.7947,-6.4104,-16.1536,33.5896,0.76929,
1.282,-11.5383,0.76929,-18.718,10.5129,-14.6155,0.76929,10.0002,-3.8459,-4.8718,-0.76929,-7.4358,23.8459,2.3079,
0,-11.7949,-3.5898,-15.8975,6.1538,-12.8208,6.6665,13.333,0,-1.0259,3.5898,-4.6152,32.3076,9.2305,
13.0769,-2.8206,-0.76929,-3.8464,21.1538,0.76929,9.9998,13.5896,-1.282,-1.7952,-1.282,-3.8464,38.718,12.051,
12.564,-4.3589,1.7949,-4.8716,31.0259,0.76904,-0.76904,4.3589,-8.9741,-8.9741,-9.4873,-7.436,23.718,3.8462,
5.8977,-11.5383,5.3845,-8.4612,16.0259,-8.9744,1.282,11.0256,-5.8972,-5.3845,-1.282,-6.4099,24.3591,4.3591,
2.5642,-16.4104,-1.5383,-15.8977,6.1536,-13.8464,3.5896,13.8459,-5.6409,-5.6409,1.5383,-10.7693,34.3591,2.5642,
6.4104,-16.6667,-2.3079,-22.3079,21.1536,-6.9231,4.8718,8.4617,-1.282,-4.3591,4.8718,-6.4104,34.6155,1.282,
-0.76929,-20.7693,-11.5388,-25.3845,21.282,-13.0769,4.3586,6.9231,0.76929,-4.3591,1.7947,-3.3333,26.9231,1.7947,
-1.5381,-19.9998,-22.051,-19.4871,6.282,-18.9741,13.8462,13.3335,11.2822,5.1284,0,-7.6919,36.9233,9.7437,
-0.51294,-19.4871,-17.4358,-13.3333,-4.1023,-14.3586,14.3591,9.2307,11.282,6.1541,0.51294,-8.2048,37.949,7.6926,
2.5637,-15.8977,-2.4358,-6.6667,10.8977,-9.2307,4.615,7.1794,-3.5901,-3.5901,-1.0256,1.0256,26.6663,2.051,
11.5386,-15.6411,4.8716,-5.3848,15.6411,-13.0771,8.9741,13.0771,-6.4102,-5.3848,-5.3848,-3.3335,31.0259,3.3335,
13.5896,-20.2566,1.282,-12.5642,4.3586,-15.6414,10.5125,9.9998,-1.282,-2.3079,-7.949,-17.1794,34.615,1.7947,
6.9229,-21.7949,2.3076,-13.5898,2.8203,-14.6157,4.3589,6.9229,0.25635,-1.2822,-0.76953,-8.9746,28.4614,-0.25635,
3.8462,-22.3076,-0.25635,-8.9741,-2.3076,-19.7437,5.8975,11.5386,0.25635,0.76953,-0.76904,-1.2817,24.8721,0.25635,
12.051,-17.6926,1.282,-1.7952,-2.3079,-13.0769,9.9998,14.1023,-0.76929,0.76929,-0.76929,-6.9231,28.9744,1.7947,
13.5898,-18.7178,5.8975,0.76904,2.8203,-6.4102,6.9229,6.4102,-4.3589,-5.8975,-0.76904,-11.5386,29.4873,-1.7949,
10,-19.231,9.4873,1.7949,2.3076,-10,2.8203,8.9741,-2.8203,-4.8716,-5.3848,-4.3589,25.3848,-1.7949,
9.4873,-20.2563,11.5386,5.3848,8.9746,-11.0254,-2.3076,14.6152,-4.8716,-5.8975,-7.9487,-0.76904,21.7949,0.76904,
7.6921,-27.6921,8.2053,0.51294,10.2566,-11.282,-1.0256,9.7434,-5.6409,-8.2053,-0.51294,-11.7947,23.5896,1.5383,
6.4102,-29.4873,0.76904,-6.9233,-4.7434,-16.6665,7.436,10.5127,-0.76904,1.2822,-1.7949,-10.5127,23.3335,4.8716,
10,-25.8975,-1.2822,-1.2822,-10.5127,-15.6411,13.0771,18.7178,1.2822,6.9233,-7.9487,-3.8462,24.8721,10.5127,
7.6926,-28.2048,-1.5383,1.5383,4.4873,-10.2561,2.5642,12.3079,-10.2561,-5.1282,-9.2307,-11.282,23.0769,6.6667,
5.1284,-29.7437,5.1284,-5.6411,9.7437,-10.769,2.0513,7.1797,-5.1279,-2.0513,-2.0513,-7.6924,25.1284,7.6924,
-0.5127,-40.5129,0.5127,-20.6411,-5.2563,-25.769,8.2051,4.6152,6.1538,5.1284,-4.6152,-4.6152,24.6152,4.6152,
0,-43.0767,0,-19.4868,-16.9229,-25.1282,5.6411,7.6924,2.5645,3.5898,-4.6152,-2.0513,27.6924,4.1025,
5.3848,-39.7437,3.8462,-11.0254,-1.9229,-10.1282,-1.2822,10,-5.3848,-3.3335,1.2822,-3.8462,28.4614,3.3335,
10.2563,-37.9487,0,-13.8462,0.51269,-10.769,0.51269,10.2563,-4.1025,-5.1279,0,-12.8203,27.1797,1.5386,
14.8721,-36.4102,2.0513,-11.2822,4.1025,-14.3589,5.1284,10.2563,-1.5386,-5.1279,-8.7178,-20.5127,26.6665,1.5386,
19.231,-35.6411,15.1284,-3.8462,18.7178,-4.3589,4.3589,8.4614,-0.76904,-7.9487,-10.5127,-15.1279,24.8721,0.76904,
17.1794,-36.1538,11.5383,-5.8972,9.4871,-2.8206,2.8206,4.3591,-2.8206,-5.8972,-7.9485,-11.0256,24.8718,2.8206,
12.3076,-35.3845,-2.564,-9.7437,-5.5129,-5.1284,11.2822,10.2563,2.564,6.6665,-3.5898,-13.8462,37.436,8.2051,
7.6921,-35.8975,-8.2053,-8.2053,-4.6155,-4.6155,9.2307,13.8459,4.6155,7.6921,-4.6155,-12.8206,38.4612,5.6409,
8.718,-34.3589,-3.0769,-4.1023,1.0256,-5.6409,0.51294,13.3333,0.51294,-0.51294,-8.2053,-9.2307,25.6409,0.51294,
7.9485,-36.6667,-0.76929,-7.949,-8.4617,-8.4617,3.3333,11.0256,0.76929,1.7947,-6.4104,-11.0256,18.718,0.76929,
7.1794,-36.4102,-1.0256,-10.2566,-7.1794,-4.6155,7.6921,10.2566,1.0256,6.1541,-1.5383,-8.718,22.0515,5.6409,
5.3845,-39.2307,-7.949,-15.6409,-0.25659,-7.949,5.3845,10.5129,0.25659,0.25659,-4.3591,-8.9744,20.7693,3.8459,
7.6926,-42.0513,-8.718,-16.9231,-6.1536,-14.3586,6.1541,12.8206,7.1794,1.0256,-1.0256,-18.4614,21.5383,7.1794,
10,-41.7949,-1.7949,-13.5898,-13.5898,-16.6665,0.25635,6.9233,3.8462,4.3589,-0.25635,-19.7437,16.6665,5.8975,
5.3845,-43.3335,-1.282,-18.718,-12.0515,-15.1282,0.25659,3.8459,2.3079,4.3591,-0.25659,-5.3845,14.1023,1.7947,
3.8462,-45.8977,-4.3594,-23.8464,-7.9487,-13.5898,4.8716,12.0513,4.3589,0.25635,-0.25635,-3.8462,15.6406,1.2817,
15.1282,-41.2822,-0.76929,-13.5901,-4.3591,-13.0769,4.8718,18.2048,1.7947,0.76929,-3.3337,-7.4363,17.1794,3.3333,
18.2051,-38.718,3.333,-3.3335,-8.9746,-14.6157,2.8203,12.0513,-1.7949,1.7949,-10,-4.3589,13.5894,1.7949,
8.9744,-38.718,4.8718,-4.8718,-16.1541,-14.6155,4.3591,10.5129,-0.76929,0.76929,-6.4104,-7.949,7.4358,0.76929,
1.7949,-42.3076,0.76953,-15.6411,-17.6924,-15.1279,4.3589,8.9746,0.25635,-0.25635,0.25635,-13.5898,6.4102,-1.2817,
5.3843,-42.8206,-0.25635,-17.6924,-6.9233,-14.1025,3.8462,5.3843,0.25635,1.2817,-2.3076,-3.8462,12.0513,0.25635,
3.8464,-45.8975,-1.7947,-14.1023,-5.8972,-18.2048,5.3845,6.4104,-0.76929,1.282,0.76929,-5.8972,14.6155,2.8206,
0,-43.5901,2.0513,-9.7437,-12.3081,-19.4873,7.6919,12.3076,0,1.0254,5.1279,-17.436,13.333,-0.51318,
4.8721,-36.6665,14.6152,-1.7949,-8.4614,-11.0254,6.4102,11.0259,-1.2817,0.25635,-0.25635,-10.5127,10.5127,0.25635,
7.1794,-42.0515,16.9231,-1.0256,-9.2312,-9.7439,6.1536,4.1023,-2.0515,-2.0515,1.0256,-4.1028,8.7175,4.1023,
4.1023,-42.5642,11.7947,-10.2566,-3.5896,-8.718,4.6155,8.2048,-5.6409,-2.5642,11.282,-5.1282,10.2566,2.5642,
1.0256,-42.564,7.1794,-25.1282,-0.51294,-6.1536,0.51294,11.282,-7.6921,-7.6921,7.1794,-6.1536,8.2053,2.5642,
3.3333,-47.436,4.3586,-33.5898,-12.0515,-10.0002,1.7947,6.4099,-0.76929,-6.4104,0.76929,-8.9744,5.8972,5.3845,
9.4873,-38.2051,13.0771,-18.5898,-0.76904,0.76904,0.25635,2.3076,-6.4102,-2.8203,3.8462,-2.3076,0.25635,-0.25635,
11.0254,-28.9746,23.8462,-3.5898,14.231,15.769,-1.7949,1.7949,-16.667,-10,2.8203,4.3589,-8.4614,-6.4102,
5.1279,-33.3335,16.4102,-8.7183,7.1792,12.3076,0,6.6665,-13.3335,-11.7949,1.0254,-2.564,-9.7437,0,
2.3076,-35.6409,5.8975,-15.6411,-6.9229,3.8462,2.8208,9.4873,-3.333,-3.333,5.8975,-3.333,-2.3076,4.8721,
-0.76929,-37.1797,1.282,-17.6926,-2.3079,7.4358,1.7947,6.4099,-3.3333,-3.3333,4.3586,2.8206,-5.3845,0.76929,
-1.7947,-36.6667,0.25659,-19.2307,4.8718,13.0769,2.3079,8.9744,-5.8972,-4.8718,0.76929,-0.25659,-7.4358,5.8977,
-0.25659,-37.1794,0.76929,-22.8206,2.3079,11.0256,0.25659,6.4104,-5.3845,-6.4104,0.25659,-13.5896,-7.4358,5.3845,
12.0515,-32.051,10.0002,-14.6155,9.4871,19.7434,0.76929,2.3079,-7.9485,-7.4358,0.25659,-12.5642,-12.051,-0.25659,
20.2563,-26.9229,18.2051,-3.8462,17.1797,23.3335,10,5.8975,-8.4614,-7.436,0.25635,-7.9487,-14.6152,-0.25635,
11.0259,-34.1025,20.2563,-3.8462,8.9746,12.564,7.436,2.8208,-9.4873,-8.4614,-0.76904,-10,-11.0254,0.76904,
3.0769,-32.3079,15.3845,-1.0256,1.0256,15.3845,-2.0515,3.0769,-8.718,-6.1541,1.0256,-4.1028,-6.1541,4.6155,
1.0254,-31.2822,3.0767,-3.5898,0,20,0,8.7178,-9.231,-12.3076,2.0513,-9.231,-10.7695,0.5127,
6.9229,-31.5386,13.0771,0.25635,12.564,19.7437,3.3335,8.4614,-16.1538,-19.231,-0.25635,-11.0259,-16.1538,-7.436,
4.8716,-28.9746,17.6924,7.9487,4.8716,18.7178,-2.8203,2.8203,-16.6665,-11.5386,-0.76904,0.76904,-11.5386,-3.8462,
-2.0513,-30.769,2.6924,4.6152,-10.1284,13.8462,-1.0259,6.6665,-4.1025,-0.5127,8.7178,2.564,-0.5127,7.6924,
0.51294,-32.3076,-3.0769,3.0769,-18.4617,8.718,0.51294,11.282,-2.5642,-5.6409,7.6921,-6.1536,-0.51294,8.718,
10.2563,-28.2051,11.9231,10.2563,-5.1279,14.8721,-1.5386,9.231,-6.1538,-8.7178,-1.5386,1.5386,-4.1025,4.1025,
1.282,-32.5637,9.4875,7.4363,-10.5125,15.6414,-1.282,2.8206,-4.3586,-7.4358,-3.8459,2.3079,-2.8206,1.282,
-10.5127,-32.0513,-1.2822,0.76904,-18.2051,8.9741,3.3335,12.0513,-0.76904,-3.8462,4.8716,-3.3335,10,4.8716,
-9.2305,-32.8203,3.5898,0,-9.7432,7.6924,0,13.8462,-9.2305,-7.1792,5.6411,0,9.7437,3.0771,
-5.8972,-36.1541,8.4617,0.76929,-8.9744,12.5642,-2.8206,4.8718,-13.5896,-12.5642,0.25659,1.7947,0.25659,-0.25659,
-8.9746,-33.5898,3.8462,-3.3335,-23.9744,12.564,3.8462,7.4355,-2.3076,-5.8975,2.3076,-4.3589,8.9741,4.8716,
-14.1028,-31.5386,-1.282,-2.8206,-26.4104,3.8459,1.7947,11.0256,0.76929,-0.76929,1.282,-4.8718,12.051,6.9231,
-6.4102,-27.9487,10.5127,8.9746,-11.4104,12.0513,-6.9229,9.4873,-10.5127,-8.4614,-3.8462,4.3589,2.3076,3.3335,
0,-28.7183,19.4873,11.7949,3.5896,19.4873,-5.1284,6.6665,-12.3076,-11.2822,-7.6924,1.5386,0,-1.0259,
-4.1025,-25.6411,12.3076,10.2563,-6.1538,12.8208,-0.5127,10.7695,-5.6411,0,0,-4.1025,5.1284,2.564,
-11.7952,-28.2053,0.51294,3.5896,-9.7439,9.2307,-6.1541,5.6409,-10.2566,-0.51294,2.051,-5.1282,1.0256,1.5383,
-9.4873,-27.9487,-0.25635,0.76904,-10,14.6152,0.25635,3.8462,-3.3335,2.3076,-0.25635,-3.3335,7.9487,6.4102,
-3.3333,-24.3591,6.4104,2.3079,-8.4617,13.5896,-0.25659,10.5129,-2.3079,0.25659,-2.8206,-3.3333,10.0002,8.4617,
0.76904,-26.4106,14.6152,3.333,1.7949,14.1025,-7.9487,7.4355,-13.5898,-10,-3.3335,-3.8462,0.25635,-0.25635,
-1.7949,-24.8716,8.9746,-0.25635,-5.8975,14.1025,0.76953,4.3594,-7.4355,-4.3589,-2.8203,0.25635,5.3848,3.3335,
-16.7949,-29.7434,-6.0254,-9.2307,-20.8975,3.5901,3.5901,6.1541,4.6155,3.0769,-4.1023,-3.0769,11.282,9.2307,
-20.5129,-39.4873,-9.7439,-12.8206,-27.1797,3.0769,-1.5383,7.6921,6.1536,1.5383,2.5642,-3.5896,10.2561,9.2307,
-11.2817,-36.4102,-1.5386,-9.7437,-12.3076,9.7437,2.0513,4.6152,-0.5127,0,5.6411,0,11.2822,10.7695,
-6.4104,-24.8718,-2.8206,-3.3333,-12.0515,9.9998,6.4104,4.3591,-2.3079,2.3079,3.3333,-3.8459,14.6155,10.5129,
-0.5127,-16.9233,4.6152,8.2051,-7.1797,13.8462,0.5127,8.7178,-3.0771,-1.5386,-1.5386,-7.1797,12.3076,3.5898,
1.5388,-18.4612,12.3079,11.7952,1.0256,17.4363,-4.1023,4.1028,-7.6921,-9.2307,-8.2048,-7.6921,1.0256,-1.0256,
-5.6411,-19.4873,3.0771,1.5386,-5.1279,10.2563,3.5898,5.1284,-1.5386,-5.1279,-2.564,-8.2051,8.2051,7.6924,
-5.6406,-16.4102,-2.0513,0,-1.5381,10.2563,7.1797,11.7949,0,0,1.5386,-3.5894,19.4873,10.7695,
-7.1797,-25.6411,2.0513,2.0513,4.6152,12.8203,0.5127,3.5898,-12.3076,-10.2563,-5.1284,-2.564,7.1797,-0.5127,
-12.0513,-28.4614,-0.25635,1.2822,-9.4873,13.0771,4.8721,3.3335,-7.9487,-8.4614,0.25635,-5.8975,3.8462,2.3076,
-20,-28.718,-15.2563,-8.7178,-24.4873,4.1025,3.0771,5.1284,0,0,2.0513,-10.769,11.2822,6.6665,
-18.4614,-30.2563,-17.436,-9.7437,-18.4614,-0.51269,2.0513,8.2051,1.5386,4.6152,0.5127,-2.0513,21.0259,8.2051,
-17.1792,-27.4355,-4.3589,-0.76904,-6.9229,3.3335,0.25635,8.9746,-3.8462,-0.25635,1.2822,5.8975,17.6924,8.4619,
-17.436,-25.6411,1.0259,0,-15.8975,3.5898,-1.5386,4.6152,-3.5898,-3.0767,0,0,11.2822,7.1797,
-9.9998,-20.2566,6.9231,0.76929,-9.4871,9.4871,1.282,6.4104,-0.76929,-2.8206,-4.8718,-5.3845,15.1282,6.4104,
-12.564,-18.2051,12.564,4.3589,-0.25635,13.0771,0.25635,8.4614,-7.436,-7.9487,-10,-4.8716,13.0771,4.3589,
-20.769,-21.7949,8.9741,-0.76904,-13.0771,5.3848,4.8716,8.4614,0.76904,-4.3589,-4.3589,-12.564,16.1538,6.4102,
-20.5127,-22.0513,6.6665,-2.564,-8.7178,8.2051,3.0771,5.1284,-0.5127,-4.1025,0.5127,-20,17.9487,1.0259,
-13.5896,-16.6667,16.1541,9.4871,6.2822,21.282,2.3079,5.8972,-12.5642,-10.0002,-2.3079,-6.4104,17.1794,-2.8206,
-23.0767,-20.5127,6.1538,6.6665,6.1538,12.8203,1.5386,4.1025,-16.4102,-13.8462,-9.7437,-5.1279,13.8462,-1.5386,
-28.4617,-17.6921,-2.8206,6.4104,-8.8462,7.4358,4.8718,14.1023,-3.8464,-0.25659,0.25659,-4.8718,24.8718,11.0256,
-33.3333,-24.6155,-10.2566,-1.0256,-23.8462,3.5896,2.0515,8.718,-4.1023,1.0256,1.0256,-2.5642,23.0769,7.6921,
-27.4358,-26.9231,-5.3845,-5.3845,-8.8462,7.9485,4.8718,4.8718,-3.8464,-2.3079,-1.282,1.282,21.7947,8.9744,
-20.5127,-24.6152,-0.5127,-8.2051,6.1538,5.6411,6.1538,6.1538,-0.5127,-1.5386,0.5127,-6.1538,28.7178,12.3076,
-17.6926,-24.3591,-0.76929,-7.949,8.9744,-2.3079,6.9231,0.76929,-0.76929,5.8972,3.3333,-7.4363,29.4871,8.9744,
-16.4102,-22.564,4.1025,-2.0513,9.231,-2.564,3.5898,-3.0767,-3.0767,5.1284,2.0513,-4.1025,25.6411,5.1284,
-15.6411,-19.7437,14.1025,5.3848,20.2563,9.4873,-0.25635,-0.76953,-6.4102,-5.8975,0.25635,-3.8462,21.7949,1.2822,
-21.7949,-19.7437,6.4102,2.3076,13.0771,10,0.25635,-0.25635,-13.0767,-9.4873,-3.8462,-1.7949,15.6411,0.25635,
-21.282,-22.3074,-8.4617,-8.4617,1.7952,-2.3074,8.9744,2.3079,-0.76929,5.3845,0.76929,-3.3333,22.8206,8.4617,
-11.282,-21.5386,-6.6667,-7.6921,7.1794,-4.6155,6.6667,-1.5383,6.1541,5.1282,1.5383,-11.7947,28.2053,4.1028,
-0.5127,-11.2822,8.3333,7.3079,19.4873,10.2563,1.5386,-3.0771,-5.6411,-6.6665,-7.6924,-10.2563,22.0513,0.5127,
-3.8462,-13.0767,5.8975,5.3848,10,10,3.8462,-4.8716,-13.5898,-8.9741,-15.1279,-13.0767,14.6152,5.8975,
-7.6924,-12.8208,0,0,0,5.1279,12.8203,0.5127,-1.5386,1.0254,-5.6411,-12.8208,27.1792,13.8457,
-14.3591,-16.9231,-7.6921,-3.0769,0.51294,1.5383,7.1794,3.0769,0.51294,-1.0256,-0.51294,-9.7434,30.7693,6.6667,
-15.6409,-24.3591,-14.1023,-9.4871,5.3845,2.3079,1.282,0.25659,-0.25659,-4.8718,0.76929,-2.3079,26.4104,3.8464,
-10.5129,-24.3591,-18.2053,-17.1794,0.76929,-0.76929,7.4358,-5.8972,2.8206,2.3079,1.282,-1.7947,28.4617,9.9998,
-8.4614,-19.7434,-15.6409,-16.1538,-10,-4.3589,16.1538,1.7949,9.4873,13.5898,4.3589,-1.7949,37.6924,15.6411,
-15.3845,-23.5898,-14.8718,-11.7947,-17.4358,-7.1794,5.6409,4.6155,4.1028,5.1282,-1.5383,1.5383,30.7693,7.1794,
-6.1536,-22.5642,-7.6921,-5.6409,-7.1794,-2.5642,4.6155,2.0515,0.51294,1.0256,-0.51294,2.0515,27.1794,3.5896,
2.0513,-22.0513,-3.0767,-9.2305,-2.0513,-5.1279,13.8462,-4.6152,4.1025,4.6157,3.0771,-8.2051,32.8208,6.667,
0.76929,-18.2051,-0.76929,-8.9744,-1.7947,-6.4104,13.5896,-2.3079,6.9231,6.9231,6.9231,-6.9231,36.1541,10.0002,
-0.51294,-17.436,-5.1282,-12.8206,-8.718,-8.718,9.2307,0.51294,7.1794,5.6409,8.2053,-5.6409,35.8972,7.6921,
4.1025,-16.4102,-3.5898,-13.3335,-6.6665,-2.0513,4.1025,0.5127,0,0,7.1797,-5.1284,28.7178,6.1538,
3.3335,-14.1025,2.3076,-2.3076,5.8975,8.4614,-3.3335,-3.3335,-14.1025,-12.564,-2.3076,3.8462,16.1538,5.8975,
-0.51294,-13.8459,-6.6667,0.51294,1.5383,4.1028,7.6921,-2.5642,-5.1282,-7.1794,-8.2048,3.5896,26.1541,9.7439,
-0.51269,-13.8462,-21.0256,-8.7178,-7.6924,0,14.3589,5.1284,4.6152,7.1797,0,-9.7437,40.5127,15.8975,
-7.9487,-19.7437,-24.3591,-19.231,-7.9487,1.2822,2.8203,1.7949,-1.2822,4.3589,7.436,-10,36.1538,14.1025,
-11.2822,-24.1025,-20.5127,-23.5898,-4.6152,2.564,-2.0513,-1.5386,2.0513,1.5386,4.6152,4.6152,32.8203,14.3589,
-8.2053,-24.1028,-20.0002,-23.0771,-5.6414,1.0256,1.5383,-3.0769,4.6155,1.0256,-1.0256,3.0769,28.2048,14.8718,
-1.0256,-16.9231,-8.718,-12.8206,-5.1282,2.051,10.7693,-1.5383,1.5383,1.0256,2.5642,-6.6667,26.1536,10.7693,
2.3079,-11.5383,0.76929,-3.3333,-1.7947,5.8977,9.4871,1.7952,-2.3074,-0.76929,-1.282,-4.8718,25.8977,5.8977,
2.0513,-17.436,0.51269,-5.6411,6.1538,11.2822,-0.5127,-3.0767,-3.5898,-6.1538,-7.6924,2.0513,24.1025,5.1284,
0,-20.5127,0,-9.7432,3.5898,6.1538,1.0259,-4.1025,-0.5127,-3.0767,0,-2.564,25.1284,8.7183,
-2.564,-14.3589,-7.1792,-15.8975,-11.4102,-5.1279,7.1797,4.6157,4.1025,8.2051,2.564,-14.3589,28.2051,10.2563,
-0.25635,-13.0769,-15.1282,-16.1538,-16.6665,-1.2817,5.8975,4.8721,7.9487,11.0259,0.25635,-18.2051,29.4873,6.4102,
4.6152,-12.3076,-12.3076,-5.6411,-7.6924,11.2822,1.0259,-2.564,2.564,0.5127,-0.5127,-10.769,24.6152,4.6152,
9.231,-7.1792,-11.2817,0,-2.564,19.4873,2.0513,0,-1.5381,-1.5381,0.51318,-2.564,23.5898,10.7695,
12.8203,-8.7183,-16.9233,-5.6411,-6.1538,22.0513,5.6411,3.5898,-2.0513,1.5386,-1.5386,-5.1284,26.6665,14.3589,
18.4617,-5.1282,-7.6921,-3.5896,3.5896,18.9744,3.5896,5.1282,-7.1794,-4.1028,-4.1028,-5.6409,22.051,10.2566,
16.9233,-4.1025,-4.1025,-6.1538,7.1797,10.7695,2.0513,7.1797,-6.6665,-4.6152,-4.6152,-2.0513,17.436,9.231,
5.8972,-12.0515,-19.1025,-16.1541,-7.8203,2.8206,1.282,4.8718,-1.282,3.8459,-7.949,-10.0002,21.7947,9.9998,
4.3591,-14.1025,-30,-14.6155,-22.8203,-7.9485,2.3079,4.8718,7.9485,9.9998,-2.3079,-12.5642,31.5383,13.0769,
6.4104,-16.6667,-15,-15.1282,-25.3845,-9.4871,1.282,1.7952,1.7952,0.25659,-0.25659,-6.9231,27.4358,8.4617,
11.282,-9.2307,-9.2307,-15.3845,-10.3845,5.5129,7.6921,2.5642,-2.0515,1.0256,-1.0256,-2.0515,26.6667,8.718,
3.8459,-12.5642,-24.2307,-20.7695,-15.1282,8.9744,6.4099,-0.76929,0.76929,3.8459,-1.2825,-14.1028,26.4099,4.3586,
0,-17.4355,-17.9487,-16.9229,-24.6152,3.0771,3.0771,1.0259,0,-1.0254,0.51318,-15.8975,24.1025,0,
1.5386,-13.3335,-7.1797,-10.2563,-20,3.0771,7.6924,3.5898,-0.5127,0,0,-5.6411,23.0771,7.1797,
1.2822,-7.9487,-14.1025,-11.5386,-17.1797,-0.25635,6.9229,0.25635,0.76904,1.7949,-4.3589,-10,22.3076,9.4873,
7.9485,-3.3333,-1.7947,-4.3591,-5.8972,8.9744,1.7947,0.25659,-0.25659,-1.282,0.76929,-4.8718,25.8972,7.9485,
-0.51294,-14.3591,0.51294,-11.282,-10.2561,12.8206,3.5896,-2.051,-4.1023,-5.6409,0.51294,4.1028,24.1028,6.1541,
-11.2822,-18.9741,-14.4871,-21.5386,-25.2561,3.5898,7.6924,3.5898,0,3.0771,0,0,26.6665,10.769,
-12.5637,-11.5383,-24.3589,-12.051,-26.9229,-1.282,4.3591,6.4104,1.282,7.4363,3.3333,-5.8972,32.5642,15.1282,
-9.9998,-10.5129,-10.5129,-0.76929,-15.6409,3.3333,2.3079,0.76929,-2.3074,-1.282,5.8977,1.7952,31.0256,13.5901,
-9.9998,-14.6155,-9.9998,-8.4617,-18.718,2.8206,3.3333,1.282,-1.282,-2.3074,3.8464,2.8206,24.8718,10.5129,
-9.7437,-16.9231,-17.9487,-19.4873,-24.1025,-2.0513,11.2822,10.2563,6.6665,7.1792,2.0513,-9.7437,32.3076,8.2051,
-8.2051,-15.8975,-8.7183,-12.3076,-14.3589,-1.5386,8.2051,2.0513,2.564,1.5386,3.0767,-11.2822,32.3076,5.6411,
-6.1538,-8.2051,6.2817,-0.5127,-12.8203,9.7437,0.5127,-5.6411,-2.564,-4.6152,8.2051,1.0254,26.1538,10.2563,
-15.8975,-13.8462,-8.2051,-13.8462,-27.8203,1.0259,1.5386,0,1.0259,2.0513,0,-6.6665,24.6152,8.7178,
-11.0256,-10.5129,-12.0513,-14.6155,-22.8206,1.7947,16.5386,15,12.051,17.0513,-1.7947,-4.3591,39.6152,18.2053,
-11.5386,-12.564,-3.8462,-10.5127,-7.8206,10,12.0513,2.8203,1.2822,6.4102,-5.3848,-1.2822,37.6924,12.564,
-6.9231,-5.8972,6.9231,3.3333,-3.8459,14.1028,1.282,-1.7947,-0.76929,-1.7947,0.76929,-1.282,28.9744,10.5129,
-4.3589,-3.8462,1.7949,7.436,-13.0771,5.3848,-4.8721,3.8462,-1.2822,1.2822,-7.436,-9.4873,26.9229,9.4873,
0.25659,-7.949,1.7947,6.9231,-7.4358,7.9485,-0.76929,0.76929,-3.8459,-0.25659,-10.0002,-3.3333,31.5383,9.4871,
-1.5386,-7.6924,-4.6152,1.5386,2.564,10.2563,4.1025,-2.0513,-7.1797,-4.1025,1.5386,-2.564,31.2817,11.2817,
-3.5898,-2.0513,-10.7695,-6.1538,0.5127,7.6924,9.2305,8.2051,-2.0513,-0.5127,5.1279,-10.2563,34.3589,14.3589,
-0.25635,-2.3076,-3.3335,-3.8462,1.7949,14.1025,8.4614,7.4355,-2.3076,0.25635,-1.2822,-3.8462,36.1538,12.564,
-1.5381,-5.6406,-2.564,4.6157,9.7437,14.8721,0,0,-12.8203,-6.1538,-4.1025,1.0259,27.6924,6.667,
-5.6411,-4.6152,-9.7437,3.5898,4.1025,6.1538,-0.5127,0.5127,-8.2051,-6.6665,0.5127,-10.2563,26.1538,7.6924,
-4.1025,-1.5386,-7.6924,0.5127,-0.5127,9.2305,3.0767,2.0513,-2.0513,-0.5127,1.5386,-7.6924,28.7178,8.7178,
-2.0513,-7.1797,-1.0259,2.564,8.7178,14.3589,-0.5127,-2.0513,-11.2822,-3.0771,0.5127,3.5898,22.0513,2.0513,
-5.1284,-9.7437,-5.6411,0,3.0771,9.7437,0,-1.0259,-9.7437,-2.564,1.5386,0,21.5386,5.6411,
-6.4099,-2.3074,-7.9485,-1.7947,-11.9229,8.9744,5.385,8.4617,-0.76929,2.3079,0.76929,-2.3074,31.0256,16.1541,
-3.3333,-0.25659,0.25659,4.8718,-9.4871,10.5129,4.3591,7.4358,-4.8718,-0.25659,-1.7947,-0.76929,31.0256,12.051,
-1.5386,-3.0771,3.5898,7.1797,0,8.7178,-1.5386,3.5898,-11.2822,-4.6152,-4.1025,0,23.5898,7.1797,
-1.5381,-3.0767,-2.0513,0,-1.5381,9.7437,1.5386,9.231,-1.5381,0,0,3.0771,29.7437,15.8975,
-2.564,-5.1284,-6.667,-6.667,-10.7695,-1.5386,4.6152,7.1792,1.5386,2.0513,5.1279,-1.5386,31.2817,12.3076,
-3.3333,-7.4358,0.76929,-2.8206,-15.6409,-11.5383,3.8459,1.7947,-4.3591,-0.76929,5.3845,1.7947,27.4358,2.8206,
-5.6409,-10.7693,0.51294,-0.51294,-13.3333,-2.5642,6.1536,4.6155,-2.0515,-1.0256,1.0256,5.1282,30.7693,6.6667,
-4.8718,-4.8718,-1.7952,1.7947,-8.9744,12.4358,6.4099,11.0256,-0.76929,-2.3079,0.76929,-1.7952,29.9998,13.0769,
-8.9744,-0.25659,0.25659,0.25659,-20.7693,19.7434,-4.3591,3.3333,-10.5129,-10.5129,2.8206,-3.8459,19.7434,5.3845,
-11.7949,2.0513,-4.1025,-2.0513,-35.7693,26.1538,-3.5898,5.1284,-5.1279,-4.1025,3.5898,3.0771,23.0771,4.6157,
-16.1536,2.8206,-19.1025,-4.3591,-50.7693,31.0256,-1.282,13.0769,1.282,1.7952,-1.7947,-2.8206,29.4871,8.9744,
-12.564,2.3076,-20.2563,0.25635,-57.6924,35.6411,-2.8203,10,-1.7949,1.2822,-0.76904,-0.25635,28.9741,9.4873,
-6.9229,-0.25635,-6.4102,4.3594,-46.9229,40.2563,-7.4355,3.8462,-10.5127,0.25635,-5.8975,4.3594,23.3335,8.4619,
-6.9231,1.282,-3.3333,7.4358,-47.4358,42.3079,-6.4104,12.5642,-7.9485,6.4104,-11.0256,-1.282,22.3079,10.0002,
-3.5896,1.0256,-4.6155,11.7952,-51.282,37.949,-4.6155,17.4358,-1.5383,5.6409,-3.0769,-1.0256,26.6667,7.6921,
-0.51294,0.51294,-7.1794,12.3074,-45.6411,39.4871,-12.8206,7.1794,-7.1794,-2.5642,-0.51294,3.0769,25.1282,7.6921,
-1.7949,1.7949,-11.5386,11.0259,-40.769,44.3589,-14.6152,7.436,-8.9741,-3.333,-8.9741,2.8208,19.7437,12.0513,
0,5.1284,-11.7949,13.8462,-39.4868,42.0513,-8.7178,14.3589,-6.1538,-1.0254,-11.7949,0,19.4873,9.7437,
-0.76929,6.9231,-6.4104,16.6667,-44.3591,38.718,-11.0256,5.3845,-3.3333,0.76929,-4.8718,-8.9744,22.3074,2.3074,
-4.6152,5.1284,3.0771,16.4102,-43.0769,42.564,-16.4102,0,-4.1025,0,-0.5127,-9.231,20,0.5127,
-3.5894,5.1284,2.5645,14.8721,-36.4102,41.0259,-12.3076,9.231,-11.7949,-5.6406,-7.6924,-2.0513,15.3848,2.0513,
-0.76904,4.8721,-7.4355,10,-44.3589,35.1284,0.25635,14.1025,-3.333,-0.25635,-6.4102,-5.3843,22.3076,6.9233,
-8.9744,-1.282,-13.0769,1.282,-58.2053,31.0256,-5.3845,6.4099,2.8206,5.3845,-4.8718,-13.0769,21.7947,7.9485,
-7.9487,1.2822,-5.8975,4.3589,-46.4102,31.0259,-8.9741,5.8975,-1.2822,2.8203,-5.3848,-3.8462,17.6924,6.9233,
-2.051,0.51294,-4.1023,3.5896,-43.0769,24.6155,-3.5896,7.1794,-0.51294,2.0515,-4.1023,-3.0769,15.3845,7.1794,
-6.667,0.5127,-5.6411,-0.5127,-52.3079,27.1792,-6.1538,8.7178,5.6411,8.7178,-1.5386,-3.0771,17.436,11.7949,
-13.3333,0.51294,-8.718,-0.51294,-46.1538,32.8206,-12.3074,5.1282,-1.0256,3.0769,-1.0256,6.6667,20.0002,8.2053,
-11.5383,-3.3333,-16.1541,1.7947,-39.2307,29.9998,-10.5129,4.8718,-5.3845,-1.282,1.282,4.8718,22.3079,4.3591,
-8.9744,-7.4358,-21.282,2.8206,-47.4358,24.8718,-10.5129,8.9744,-0.25659,0.25659,-0.25659,0.76929,16.6667,5.3845,
-8.2048,-10.7693,-22.5642,-2.051,-52.3076,20.0002,-11.282,8.718,4.6155,1.5383,-1.0256,1.0256,11.7952,7.6921,
-9.7434,-6.6667,-22.051,-2.5642,-50.2563,20.5129,-9.7434,6.6667,0.51294,2.5642,1.0256,-0.51294,12.3079,8.718,
-9.7437,0,-18.4614,4.6157,-45.6409,24.1025,-12.8203,9.231,-6.6665,0.51269,-5.1279,0,8.7183,6.1538,
-5.6411,3.0767,-11.7949,12.8203,-35.3848,28.2051,-17.436,10.769,-8.2051,-1.5386,-8.7183,1.5386,5.6411,3.0767,
-3.0767,4.1025,-6.6665,16.4106,-35.3845,29.7437,-15.8975,15.8975,-4.6152,0,-1.0254,0,8.7183,8.2056,
-7.949,-2.3079,-10.5129,11.0256,-42.3079,23.3333,-8.4617,16.1536,-0.76929,1.7947,0.76929,-5.3845,14.6155,10.5125,
-2.8208,3.3335,-2.3076,14.6152,-27.3079,30.5127,-4.8721,13.5898,-4.8721,-2.3076,-3.8462,2.3076,11.5386,4.3589,
6.4104,6.4104,3.3333,17.1794,-12.3079,31.5383,-13.5896,13.5896,-11.5383,-8.4617,-8.9744,-0.25659,0.25659,-1.7947,
9.231,3.5898,-4.1025,13.3335,-27.3079,23.5898,-9.7437,10.2563,-3.5898,-5.1284,-6.6665,-7.6924,7.6924,7.1797,
5.8977,3.8464,-6.9231,14.6155,-27.9487,21.282,-3.8459,0.76929,-0.76929,-4.3586,-5.8972,-5.3845,15.6414,10.5129,
7.949,2.3079,1.282,15.6409,-12.9487,22.8206,-7.4358,-1.282,-3.3333,-8.4617,-3.8459,-1.282,10.0002,4.3591,
6.9231,-2.8206,2.8206,7.9485,-14.6155,20.7693,-8.9744,2.3079,-3.3333,-4.3591,-2.3079,-2.8206,6.4104,4.8718,
-1.2822,-5.8975,-8.9746,3.3335,-28.4617,21.2822,-3.3335,-0.76904,0.76904,4.8716,0.76904,-5.3848,12.0513,12.564,
-1.7947,-3.3333,-16.6667,3.3333,-22.3079,26.4104,-2.8206,-3.8459,1.7947,4.3591,3.3333,-2.3079,16.1541,13.5896,
9.4873,-0.25635,-8.4614,8.4619,-7.3079,28.4619,-8.9741,-0.76904,-3.333,-2.8203,1.2822,0.25635,17.1797,8.9746,
11.5388,-1.282,1.282,12.0515,-5.3845,26.9231,-2.8206,-2.3074,-3.3333,-3.3333,1.282,-5.3845,15.6414,7.949,
3.0771,-1.5386,-2.564,7.6924,-16.9229,25.6411,2.0513,-6.6665,-0.5127,0.5127,-1.5386,-7.6924,10.2563,10.769,
4.1025,0,-1.0259,8.7178,-6.1538,29.7437,-3.5898,-4.1025,-4.1025,1.0254,-5.6411,0,7.1792,10.2563,
3.5898,-3.5898,-1.5386,10.2563,0,30.2563,-7.6924,0,-7.6924,-3.0771,-6.1538,0,8.2051,2.564,
5.1282,-1.0256,-10.7693,10.2566,-6.1536,36.4104,-8.718,1.0256,-6.6667,-1.5383,-2.051,2.0515,7.1794,5.1282,
11.7949,1.0259,-11.2822,10.7695,0,44.1025,-14.8716,-6.1538,-14.3589,-5.6411,-3.5898,3.5898,0,2.564,
19.7434,6.9231,-1.7947,19.7434,8.4617,44.8718,-11.5383,-4.3591,-13.5896,-4.3591,-4.3591,1.7947,4.8718,-1.7947,
14.6152,12.0513,-7.9487,18.2051,-6.4102,38.2051,-8.4614,0.76904,-8.9741,-0.76904,-7.436,-4.8716,8.9746,2.3076,
6.1538,10.7695,-10.2563,12.8208,-21.4102,31.2822,-8.7178,0,-6.6665,0,-5.1279,-4.1025,3.5898,7.6924,
14.1025,10.5127,0.25635,17.1792,-15.1284,31.5386,-4.8721,-0.25635,-3.8462,-1.7949,-0.25635,-0.25635,4.8716,5.3848,
21.5386,8.2051,-7.6924,8.2051,-1.5386,33.3335,-2.0513,1.5386,-2.564,-3.5898,-2.0513,-4.6152,11.7949,2.0513,
17.6921,5.8972,-16.1541,1.7947,-6.9231,30.0002,-6.9231,4.3591,-4.3591,-3.8459,-1.7947,-10.5129,5.3845,3.8459,
22.0513,14.8721,-3.0767,16.7947,-11.7944,29.231,-9.7432,3.5898,-8.2051,-0.51269,0,-6.1538,0,4.103,
29.7437,18.4614,4.1025,26.6665,-5.6411,28.2051,-7.6924,-0.5127,-11.7949,0.5127,-4.6157,-1.5386,3.5898,-0.5127,
28.4614,14.6152,2.8203,17.1792,-3.3335,25.8975,-9.4873,-0.25635,-14.1025,-5.3848,-7.9487,-1.7949,2.3076,0.25635,
29.7437,13.8462,5.1284,12.3076,-4.1025,26.667,-9.7437,-2.0513,-11.2817,-6.6665,-4.6152,-0.51269,0.5127,2.5645,
29.2307,13.8459,2.0515,9.2307,2.5642,30.7693,-10.7693,-3.5896,-13.3333,-6.6667,-5.6409,0.51294,-1.5383,-0.51294,
20,13.8462,-5.6411,6.1538,0,29.2305,-10.2563,2.564,-14.8721,-3.5898,-9.231,-1.5386,0,1.0254,
19.4873,14.3589,-1.0254,12.3076,5.6411,23.5898,-10.769,-0.5127,-14.3589,-4.6152,-3.5898,1.5386,0,0,
23.8464,13.5901,4.8718,20.2566,19.2307,23.8464,-17.1794,-13.0769,-23.3333,-13.5896,-4.8718,5.385,-5.8972,-10.5125,
23.0769,13.3333,1.0256,20.0002,7.1794,25.1282,-8.718,-6.1536,-14.8718,-7.6921,-1.0256,-1.0256,1.5388,-2.051,
17.6924,7.436,-11.5386,8.4614,-7.8206,11.0259,-3.3335,-0.25635,-8.4614,-5.3848,0.25635,-13.0771,4.8716,4.8716,
20.2561,11.0256,-5.3845,10.5129,-1.7952,8.9744,-7.949,0.76929,-10.0002,-3.3333,-0.76929,-4.8718,2.3079,1.7947,
17.436,10.2563,2.0513,10.2563,-3.5898,21.0254,-11.2822,-4.1025,-8.2051,0.5127,-0.5127,1.5386,-1.0259,-2.564,
15.6411,7.436,-4.3589,7.9487,-18.5898,26.4102,-9.4873,-6.4102,-5.3848,0.25635,-1.7949,1.2817,-0.25635,0.76904,
19.231,6.9233,-7.9487,12.0513,-11.0254,17.6924,-11.0254,-2.3076,-6.4102,-0.25635,-7.9487,0.25635,1.2822,3.8462,
18.7178,5.8975,-4.8721,11.5386,-5.3848,15.1279,-12.564,-1.7949,-8.4614,1.7949,-16.6665,-0.25635,0.25635,0.76904,
20.0002,8.718,-0.51294,11.282,-7.1794,21.5383,-11.7947,-2.5642,-6.6667,4.1028,-20.5129,4.1028,0.51294,-1.5383,
18.718,6.9231,1.2825,12.0515,-3.8459,17.6926,-12.5637,-5.3845,-5.8972,-0.76929,-23.3333,2.8206,0.76929,-3.3333,
19.2305,6.9229,3.8462,13.5894,2.8203,15.6406,-15.1284,-9.4873,-6.9233,-2.3076,-23.8462,-2.3076,0.25635,-0.25635,
17.436,8.2056,0,9.231,-1.5381,16.9233,-14.3589,-8.7178,-8.7178,2.0518,-23.0767,-2.564,0,3.0771,
14.8718,6.1536,-0.51294,8.718,-3.5901,20.5129,-11.7952,-4.6155,-5.6414,-0.51294,-20.0002,5.1282,4.1023,0.51294,
14.8718,5.1282,3.0769,18.9744,3.0769,23.0769,-20.0002,-10.2566,-12.8206,-13.8464,-24.6155,4.6155,-3.0769,-8.2053,
21.7947,12.051,4.3586,28.4612,1.7947,24.8718,-13.0769,-6.4104,-8.9744,-3.3333,-25.3845,1.282,-1.282,-1.282,
15.6409,12.0515,-2.3079,18.2053,-13.2053,12.5642,-4.3591,-2.3079,-2.3079,7.9485,-27.4358,-5.8972,4.8718,2.3079,
10.5127,11.0259,0.25635,9.4873,-11.0254,11.5386,-3.8462,-6.9229,-0.25635,4.8716,-24.8716,-1.7949,7.436,-0.76904,
5.6406,4.1025,0,11.7944,-3.5898,12.8203,-7.6924,-14.8721,-2.0518,0,-21.0259,3.0767,1.5381,0,
5.8975,3.3335,-3.8462,17.1797,-15.1279,7.9487,-8.9741,-10,-3.8462,2.3076,-23.3335,1.7949,-1.7949,2.8208,
8.2053,7.1794,-1.5383,13.3333,-22.0515,8.718,-10.7693,-7.1794,-4.1028,0.51294,-26.1541,3.5896,2.0515,-0.51294,
6.1538,7.1797,2.0513,12.8208,-15.8975,11.2822,-14.8716,-13.333,-6.6665,-2.0513,-25.6411,4.6157,3.5898,-2.0513,
10.5129,7.4358,2.3079,20.2566,-10.5129,12.5642,-13.0769,-11.0256,-10.0002,-1.7947,-23.8464,6.4104,-0.25659,0.25659,
13.0769,5.3845,1.282,16.1541,-11.0256,10.5129,-10.0002,-8.9744,-8.9744,-2.3079,-24.3591,7.4358,2.8206,-1.282,
4.3589,4.8721,0.25635,10,-13.5898,7.9487,-10,-12.564,-8.9741,-1.7949,-26.9229,3.8462,8.4614,-0.25635,
6.6667,5.1282,1.5383,13.8459,-11.282,5.6409,-10.2566,-11.282,-10.7693,-3.5901,-25.6414,-0.51294,5.1282,0.51294,
18.2051,7.4355,3.333,14.6152,-3.8462,6.9229,-9.4873,-5.8975,-10,-3.3335,-25.3848,0.25635,2.8203,-0.25635,
10.7693,7.1794,1.0256,9.7434,-5.1282,5.6409,-12.3079,-6.6667,-11.7947,-4.1028,-28.2053,4.6155,4.1028,-1.0256,
1.0256,3.5901,1.0256,9.7439,-16.4099,-1.0256,-5.1282,-7.6921,-7.1794,-2.051,-26.1536,3.5901,5.6414,1.5388,
6.1536,3.0769,2.051,11.282,-14.8718,-1.5383,-3.0769,-6.1541,-3.0769,1.5383,-21.5383,-3.0769,6.1536,4.6155,
9.4868,3.333,8.4614,14.1025,0.12817,7.9487,-11.5386,-12.0513,-11.5386,-4.3589,-19.231,-0.76953,1.7949,-0.25635,
6.4102,4.8716,12.0513,14.6152,-1.7949,10,-7.9487,-9.4873,-11.5386,-4.8716,-16.6665,6.4102,1.7949,-5.3848,
-3.5896,3.0769,-1.5383,6.6667,-16.7949,-4.6155,1.0256,-4.1028,-0.51294,4.1023,-17.949,0.51294,8.718,0.51294,
-7.4358,0.25659,-6.4104,6.4104,-17.6921,-7.949,3.8459,-6.9231,4.8718,8.4617,-16.6667,-0.25659,15.1282,6.9231,
-3.8459,1.282,0.76929,14.6155,-8.4617,2.8206,-4.8718,-9.9998,-6.9231,-0.25659,-17.6921,4.8718,5.3845,0.25659,
0.25659,6.4104,7.9485,19.2307,-0.25659,9.4871,-7.949,-4.3591,-12.5642,-2.8206,-16.6667,2.3079,1.282,-3.3333,
1.7949,7.9487,7.436,16.6665,7.436,8.9746,-6.9229,-5.8975,-12.564,-1.7949,-19.2305,-5.8975,7.9487,-5.3848,
5.8972,12.5642,8.4617,18.718,4.3591,14.1023,-8.4617,-14.1028,-12.0515,-5.8977,-22.3079,-4.8718,8.4617,-4.3591,
8.4619,11.5386,6.4106,16.667,1.7949,12.5645,-6.4102,-16.6665,-8.9741,-8.4614,-19.7432,-3.8462,5.8975,-1.7949,
5.1284,8.7183,-1.5386,12.8208,9.231,6.667,-4.6152,-13.333,-7.1792,-3.5898,-18.4614,-2.0513,7.6924,1.5386,
0.25635,5.3848,-5.8975,12.0513,-5.769,6.9233,-5.8975,-11.0254,-4.8716,1.7949,-17.1792,3.3335,7.436,-0.25635,
7.4358,6.9231,0.76929,15.6409,-8.4617,13.5896,-6.4104,-11.0256,-3.3333,-0.76929,-8.9744,3.3333,5.8972,-1.282,
11.5381,8.4614,-1.7949,8.9741,6.5383,13.0767,-3.8462,-11.5386,-3.8462,-2.8208,-6.9233,-3.8462,9.4868,1.7949,
2.5642,0.51294,-14.8718,-5.1282,20.0002,-1.9233,2.0515,-15.8972,5.1282,3.0769,-10.2566,-8.718,19.4871,-0.51294,
5.6411,-0.5127,-11.7949,0,14.3589,-10.2563,5.1284,-15.3848,9.231,8.2051,-8.7178,-1.5386,21.5386,0,
13.8459,3.0769,-4.1028,10.7693,29.3589,-7.1794,-5.1282,-14.8718,-5.769,1.0256,-14.3591,0.51294,8.2053,-0.51294,
16.1536,2.3074,0.76929,15.1282,35.1282,-10.0002,-6.4104,-15.1282,-9.4875,1.7947,-17.1794,-1.7952,8.9744,-0.76929,
18.4614,2.0513,5.1284,11.2822,28.7183,-11.2817,-2.564,-18.4614,-5.1279,2.0513,-20.5127,-2.0513,13.8462,-4.1025,
21.282,5.8977,6.4104,11.0256,36.1541,-3.3333,1.282,-20.2566,-3.8459,-1.282,-18.2053,-1.7947,16.1541,-1.7947,
11.0259,5.3848,-1.2817,13.5898,30,-4.8716,0.76953,-20.2563,-5.8975,0.25635,-13.0767,-3.333,15.1284,-0.25635,
11.0259,4.3589,-3.3335,13.5898,23.8462,-11.5386,-1.7949,-18.2051,-7.9487,3.3335,-14.1025,1.2822,9.4873,-1.2822,
18.4614,3.0771,2.564,10.769,27.1797,-13.3335,-2.564,-20,-8.2051,1.5386,-17.9487,-1.5386,9.231,-1.5386,
17.436,4.1025,4.6152,13.8462,26.6665,-9.7437,0.5127,-18.4614,-5.1284,-0.5127,-13.8462,-5.1284,16.9229,-0.5127,
12.3079,0.51294,-1.0256,12.8206,25.1282,-8.2053,1.5383,-11.282,-2.5642,-0.51294,-10.2566,-0.51294,18.4617,3.5896,
11.5383,-1.282,-3.3333,9.4871,24.3591,-10.5129,-0.76929,-11.0256,-3.3333,0.76929,-12.5642,4.3591,15.6409,4.3591,
11.5383,2.8206,-1.7947,10.5129,18.2053,-15.1282,-1.282,-18.718,-5.8972,1.7947,-11.0256,-0.76929,18.718,0.76929,
15.3848,4.6157,3.0771,12.8208,26.1538,-12.8203,0,-20,-8.7178,-1.5386,-9.2305,0,17.9487,-2.564,
18.718,2.8206,9.4871,14.1028,41.1538,-2.8206,-7.4358,-18.718,-18.718,-11.0256,-14.1028,6.9231,9.4871,-6.4104,
13.0769,1.282,2.3079,10.5129,32.0515,-3.3333,-8.9744,-19.7434,-14.6155,-2.8206,-9.9998,7.949,11.5383,-1.282,
1.7949,-0.76904,-12.6921,0.76904,17.0515,-18.2051,-9.4873,-17.1797,-7.9487,2.8203,-14.1025,0.76904,11.0259,3.8462,
8.4617,4.8718,-6.9231,6.9231,17.6921,-12.051,-10.5129,-12.5642,-11.0256,-1.282,-19.2307,5.8977,10.5129,1.282,
14.3589,1.5386,4.1025,10.2563,32.6921,-1.5386,-9.7437,-23.0767,-18.9741,-7.6924,-20,4.1025,7.6924,-9.2305,
13.0769,0.25659,-0.25659,7.4358,33.5896,-3.3333,-4.8718,-19.7434,-13.5896,-1.7952,-11.5383,0.76929,11.5383,0.25659,
10.769,0,0,5.6411,28.7178,-6.6665,-1.5386,-10.7695,-2.564,7.1792,-6.1538,0,22.0513,9.7437,
12.8203,-1.0259,7.1792,8.2051,29.7437,-7.6924,0,-11.7949,-1.0259,7.1792,-9.7437,-5.1284,23.0767,0,
12.5645,-0.25635,6.4106,9.4873,33.0771,-6.4102,0.25635,-10.5127,-2.8203,5.3848,-8.4614,-3.333,15.1284,-1.2817,
9.7437,-3.5898,0.51269,4.6152,30.7695,-9.2305,-0.5127,-11.7949,-2.564,1.5386,-5.6411,-3.5898,15.8975,1.5386,
14.1023,2.3074,-1.282,3.8459,27.4358,-9.4871,-2.3079,-16.6667,-1.7952,2.8206,-6.4104,-6.9231,19.7434,1.282,
20,6.6665,-2.0513,5.1279,31.7949,-6.1538,-3.0771,-15.3848,-3.0771,5.6411,-6.1538,-2.0513,13.8462,2.0513,
18.9744,-1.0256,-1.0256,1.5388,30.7693,-6.6663,-4.1023,-11.7947,-5.6409,2.5642,-9.7434,1.0256,9.2312,2.0515,
17.6924,2.3076,4.8716,9.4873,27.9487,-2.8208,-4.8721,-13.5898,-7.436,0.25635,-13.0771,-2.3076,12.0513,-0.25635,
17.6924,8.4614,5.3848,14.1025,30,1.2822,-3.8462,-15.1279,-9.4873,-1.2822,-13.5898,-8.4614,11.0259,-2.3076,
17.6921,4.8718,-0.76929,4.3591,29.9998,2.3079,-5.3845,-12.5642,-13.0769,-1.282,-14.1028,-8.4617,7.4358,0.76929,
20.5125,4.1023,-4.1028,1.0256,28.2048,3.5896,-1.0256,-8.2053,-9.2307,-1.0256,-9.7439,-1.5388,11.7947,6.1536,
19.7437,2.3076,-4.8716,-0.25635,26.4102,-1.7949,0.25635,-9.4873,-6.4102,-3.8462,-7.9487,2.3076,12.564,5.3848,
18.4617,0.51294,0.51294,-0.51294,27.1794,-3.0769,-5.6409,-12.8206,-9.7434,-3.0769,-11.7947,0.51294,9.7434,1.5383,
18.4614,3.0771,4.6152,6.1538,31.2822,0.5127,-3.0767,-15.3848,-12.8203,-1.5386,-13.3335,-0.5127,10.2563,-2.564,
16.4102,6.6665,-0.51318,9.7437,27.6924,-1.0259,2.564,-14.3589,-11.2822,0,-9.7437,-0.51318,11.2817,0,
15.3848,5.6411,-3.0771,7.1797,24.1025,-5.1284,-3.0771,-9.231,-10.2563,1.5386,-10.2563,-1.5386,12.8203,3.5898,
13.0771,-0.25635,3.8462,7.436,35.6411,-1.7949,-9.4873,-10.5127,-15.1284,-5.3848,-12.0513,0.76904,6.9229,0.25635,
8.718,0.51294,2.0515,5.6409,33.3333,-2.051,-1.5383,-15.3845,-13.8459,-9.7434,-7.6921,5.1282,4.6155,-0.51294,
5.3843,-0.25635,-10.5127,-7.9487,18.3333,-17.051,5.3843,-13.5898,-1.2822,2.3076,-3.8462,0.25635,12.0513,5.8975,
9.4871,-1.282,-5.8977,-5.8977,3.3333,-25.3845,1.282,-6.4104,1.282,6.9231,-4.3591,-4.3591,16.1536,8.4612,
16.1538,2.3076,8.4614,9.1023,18.3333,-10.3845,-2.3076,-7.9487,-12.0513,-8.0769,-10,-2.8208,10,2.3076,
19.2305,6.9229,4.8716,13.5894,33.0767,-3.3335,-0.25635,-17.6924,-14.6157,-10.5132,-12.5645,-3.8462,8.4614,0.25635,
21.2822,12.5645,2.3076,13.0771,23.3335,-3.8462,-3.333,-12.564,-8.9741,-2.3076,-12.0513,-6.4102,10.5132,4.3589,
20.2561,8.4617,15.1282,15.1282,18.718,-2.8206,-5.8977,-2.8206,-10.0002,-10.0002,-13.0769,-3.8464,12.051,2.8206,
17.6921,6.9231,14.6155,11.0256,21.282,-4.8718,-0.76929,-7.4358,-12.051,-10.5129,-7.9485,-0.76929,14.1028,0.76929,
19.4871,9.7434,3.5896,8.718,28.2053,-6.6667,-1.0256,-16.4104,-13.3333,-3.5896,-4.6155,-8.718,10.7693,1.0256,
18.7178,5.8975,3.3335,8.9741,26.4102,-2.3076,-2.3076,-15.1284,-8.4614,-4.3589,-7.9487,-16.6665,10,2.3076,
10.0002,2.3079,-2.8206,4.3591,11.5388,0.76929,-4.3586,-9.4871,-3.8459,-0.76929,-12.5637,-6.9231,13.0769,6.9231,
6.4106,0.25635,-7.4355,3.3335,13.5898,-1.7949,-8.4614,-15.6406,-9.4868,2.3081,-11.5381,-0.25635,11.0259,2.8208,
16.1536,2.3074,7.5645,11.0256,28.5898,1.282,-3.3333,-19.2307,-12.0515,-2.3079,-3.8464,-1.7952,8.4612,-1.282,
15.3848,0,11.2822,5.1284,29.231,-2.564,0,-13.3335,-8.2051,-2.564,-8.7178,-5.1284,9.231,4.6152,
11.5386,0.25635,-0.25635,-3.3335,14.231,-4.8716,0.76904,-5.8975,-1.2822,2.8203,-13.5898,-5.8975,16.1538,12.0513,
16.4102,6.1538,0,7.1797,16.9233,0,-2.564,-9.7437,-10.2563,-5.1279,-13.333,-9.2305,10.2563,2.5645,
22.3076,12.0513,5.8975,17.6924,30.5127,2.3076,-2.3076,-13.0771,-16.1538,-7.9487,-11.0259,-11.0259,3.3335,-2.8203,
21.5383,9.2307,3.0769,10.2561,30.2561,-2.0515,-2.5642,-9.7439,-11.282,-0.51294,-13.3333,-13.3333,5.6409,0.51294,
20.5129,4.6155,-1.0256,2.0515,22.5642,-6.1536,-1.5383,-8.2048,-8.2048,1.0256,-13.3333,-16.4104,10.7693,3.5896,
21.2822,3.3335,-2.8203,-0.76904,20.2563,-8.9741,3.8462,-10.5127,-3.8462,0.76904,-3.3335,-15.6411,13.0771,5.3848,
19.7437,6.9233,0.25635,2.3076,28.4614,-8.9741,-2.8203,-10,-7.436,-0.25635,-2.3076,-6.9229,6.4102,2.3076,
16.1536,5.8972,-0.76929,2.3074,26.4099,-9.4875,-7.4363,-5.8977,-9.4875,-0.76929,-7.4363,2.8206,1.282,0.76929,
13.0771,0.76953,-13.0767,-5.8975,11.4099,-16.1538,0.25635,-6.4102,-0.25635,6.4102,-7.4355,-2.3076,3.8462,2.3076,
12.3079,1.5388,-14.8718,-3.5896,-1.0256,-16.4099,2.5642,-11.7947,1.0256,5.6414,-6.1536,-9.7434,5.1282,3.0769,
12.0515,0.25659,-2.3079,2.3079,13.9744,-14.6155,1.7947,-11.0256,-5.8972,-0.25659,-2.8206,-6.9231,1.282,3.8459,
13.0771,-2.3076,1.7949,0.76953,14.6157,-19.2305,0.25635,-4.8716,-7.4355,1.2822,-0.25635,-7.4355,-0.25635,4.8721,
14.3591,-1.0256,-5.6409,1.0256,8.2048,-19.4871,1.0256,-6.1541,-3.0769,3.0769,-1.5383,-11.7952,1.5383,4.6155,
10,-0.25635,-6.9229,3.8462,10,-16.1538,2.8208,-10,-2.8203,0.25635,-1.2817,-10.5127,0.76953,2.8208,
11.5383,5.3845,4.3586,7.4358,11.5383,-14.6155,0.76929,-8.9744,-4.8718,-0.76929,-3.3333,-3.8464,-2.3079,3.3333,
16.4102,8.7178,8.7178,7.1792,12.8203,-14.8721,2.0513,-11.2822,-5.1284,-3.0771,-8.2051,-4.6157,-2.0513,2.564,
17.4355,9.7437,4.6152,10.2563,16.4102,-12.8208,5.6411,-13.3335,-7.6924,-5.6411,-6.1538,-8.2051,-1.5386,1.5386,
15.3848,10.2563,4.6152,14.3589,16.9229,-6.1538,2.564,-11.2822,-11.2822,-4.1025,0,-5.1284,-3.0771,0,
10,5.3848,0.76904,10,14.1025,-3.3335,-0.25635,-13.0767,-9.4873,-1.7949,0.25635,-1.7949,-2.3076,1.7949,
8.2053,5.6414,-3.0769,8.2053,15.385,-9.2307,1.0256,-14.8713,-6.6663,-1.0256,-2.5637,-6.1536,1.5388,5.6414,
8.7183,6.667,0,10.7695,16.4102,-15.3848,0,-11.7949,-5.1279,0,0,-9.7437,3.0771,3.5898,
6.667,4.1025,4.1025,11.2822,17.9487,-8.7178,-5.1279,-11.7949,-8.2051,-5.1279,0.5127,-0.51269,-3.5898,2.0513,
5.6411,4.1025,9.7437,11.7949,25.6411,-0.5127,-6.667,-14.3589,-10.7695,-6.1538,-3.0771,8.7178,-4.6152,0.5127,
3.333,-0.25635,1.7949,4.8716,19.2305,-11.5386,-4.3594,-18.7183,-5.8975,4.3589,-4.3594,0.25635,3.333,-1.2822,
4.6155,2.5642,-3.5896,5.1282,9.2307,-15.8977,-2.5642,-13.3333,-3.5896,5.6409,-4.6155,-8.718,3.5896,3.5896,
11.2822,10.769,11.4104,15.8975,17.436,-7.1797,2.564,-9.231,-9.231,-5.6411,-5.6411,-11.7949,-2.564,5.1279,
12.564,10,22.3076,20.2563,23.3335,-4.8716,1.7949,-14.1025,-14.6152,-5.8975,-1.7949,-11.0254,-3.8462,1.7949,
7.436,7.436,7.9487,11.5386,18.7183,-3.8462,-4.3589,-12.564,-12.0513,-0.25635,0.25635,-10,-0.76904,3.3335,
9.7437,9.7437,6.1538,10.2563,25.1284,0.5127,-1.5386,-8.2051,-6.6665,-6.6665,-5.6411,-10.2563,-0.5127,4.1025,
13.3333,12.8206,14.8718,19.4875,33.8464,1.0256,2.0515,-11.282,-13.8459,-10.2561,-9.7434,-12.3074,-5.6409,-1.0256,
15.1282,13.0769,13.5896,23.3333,31.5383,4.8718,-0.76929,-12.5642,-16.6667,-0.25659,-3.3333,-10.0002,-5.8977,0.25659,
15.6411,13.0767,12.564,24.3589,28.9741,11.5386,-6.4102,-12.564,-12.564,-1.7949,-2.8208,-6.4102,-3.8462,1.7949,
8.9746,14.1025,11.5386,25.3848,24.3594,11.5386,-4.3589,-12.0513,-10.5127,-1.7949,-2.3076,-3.8462,-4.8716,1.7949,
-1.7949,5.3843,0.76904,14.6152,11.0254,2.8203,-5.3848,-13.5898,-13.0771,0.25635,1.2817,-4.3594,-14.1025,-0.25635,
1.5383,3.5896,-1.0256,7.6921,9.2307,2.5642,-8.2053,-7.6921,-9.7434,0.51294,-1.0256,-0.51294,-15.3845,4.6155,
5.1284,1.5386,1.5386,6.6665,10.2563,-1.5386,-8.2051,-10.2563,-7.1797,1.5386,-5.6411,-5.6411,-10.2563,4.6152,
9.231,2.564,6.6665,10.769,12.3076,-6.6665,-4.1025,-16.4102,-9.231,1.5386,-1.5386,-14.3589,-12.3076,2.0513,
20.7693,10.5129,14.6155,18.2053,19.7434,-1.7947,-1.7947,-11.5383,-9.4871,-0.76929,0.76929,-6.9231,-15.6409,4.3591,
17.6919,7.4355,14.1025,14.1025,12.564,0.25635,-3.8462,-8.4619,-7.9487,-1.2822,-0.76953,-0.25635,-15.1284,1.7949,
5.6411,4.6157,9.7437,4.1025,5.6411,0,-7.6924,-12.3076,-11.2817,-1.5381,1.0259,0,-18.4614,-2.0513,
3.0769,3.5896,5.6409,-0.51294,12.8206,1.0256,-13.3333,-15.3845,-20.5129,-9.2307,-2.051,1.0256,-24.6155,0.51294,
7.6921,4.1023,4.1023,4.615,14.3586,2.051,-11.282,-11.7952,-21.5388,-12.3079,-9.2307,1.0256,-21.5388,-1.0256,
13.5896,12.5642,10.5129,17.1794,16.6667,7.4358,-1.7947,-7.4358,-14.6155,-4.8718,-6.4104,1.282,-13.0769,-1.282,
15.1282,14.6155,15.1282,22.8206,22.3079,10.0002,-1.282,-9.9998,-13.5896,-5.3845,-1.282,-2.8206,-16.1536,1.282,
12.3076,11.7949,11.2817,22.0513,19.4868,6.1538,-9.231,-10.2563,-20,-10.2563,-1.0259,0,-23.5898,0,
7.1794,8.718,7.1794,20.0002,9.2307,0.51294,-11.282,-6.6667,-17.4358,-5.6409,-1.0256,7.6921,-19.9998,-0.51294,
-1.0256,0.51294,1.0256,9.7434,8.2053,-2.5642,-7.1794,-8.718,-10.2566,-0.51294,2.5642,5.1282,-11.7947,2.0515,
-0.25635,-1.2822,0.25635,4.8716,19.7437,-0.25635,-5.3848,-12.0513,-7.9487,0.76904,11.0254,2.8203,-7.436,4.8716,
6.6665,0.5127,8.7178,7.1797,18.9746,-4.1025,-4.6152,-17.436,-9.231,-0.5127,9.231,4.6152,-12.3076,-0.5127,
12.3076,5.6406,14.3589,12.3076,14.3589,-3.0771,-1.5386,-15.8975,-7.1797,0,-1.0259,0.5127,-15.3848,0,
15.8972,10.2561,22.5637,22.051,20.5125,7.6921,-3.0769,-14.3591,-11.2825,-4.6155,-4.1028,-3.0769,-18.4617,3.0769,
13.5898,4.8721,26.4102,23.3335,30.5127,10,-7.9487,-19.7437,-23.3335,-13.5898,-2.3076,2.3076,-26.4102,-5.3848,
3.8462,1.7949,11.4102,13.5894,24.8716,7.4355,-7.9487,-18.2051,-23.3335,-10.5132,-1.7949,4.8716,-23.3335,-7.436,
-1.2822,4.8721,-0.76904,8.9746,9.8716,4.8721,-0.76904,-5.3848,-8.3335,2.8203,1.2822,-0.76904,-11.0254,3.3335,
4.8716,4.3589,7.9487,8.4614,1.2822,0.25635,-1.7949,-1.2822,-11.5386,-0.25635,-3.3335,-4.3589,-17.6924,1.7949,
17.6924,14.1025,19.7437,16.1538,16.2822,9.4873,-2.3076,-2.3076,-17.6924,-3.333,-2.8203,2.3076,-19.2305,-2.8203,
17.1794,20.7693,15.1282,18.718,31.2822,6.9231,-1.282,-7.4363,-11.0256,-0.76929,0.76929,-4.8718,-14.1028,-2.3079,
16.667,17.6924,12.0513,18.2051,34.1025,-3.8462,-0.25635,-10,-7.4355,-0.25635,0.25635,-14.6152,-16.1538,1.2822,
13.5894,5.8975,8.4614,5.8975,30,-6.4106,1.2817,-13.0771,-10,-0.25635,-1.7949,-10,-16.1538,0.25635,
4.6157,2.5645,-1.0254,-1.0254,28.2051,-4.1025,0,-14.8716,-7.6924,3.5898,0,2.0513,-11.7949,2.0513,
6.1538,7.1797,-2.0513,8.7178,24.1025,-1.5386,-5.6411,-10.769,-9.231,1.5386,-1.5386,6.6665,-20,2.0513,
12.8203,5.6411,3.5898,7.6924,15.8975,-7.1797,-3.5898,-6.6665,-9.7437,0,0,-1.5386,-25.1284,0.5127,
13.5896,6.4099,10.5125,6.4099,20.7693,-10.5129,-3.3337,-7.4363,-10.5129,0.76929,6.4099,-2.3079,-19.2307,-0.76929,
15.1284,12.0513,18.2051,15.6411,35.7693,1.7949,-8.4614,-13.0767,-18.7178,-7.9487,1.2822,-1.2822,-22.3076,-5.3848,
21.2822,16.667,19.231,15.6411,43.8462,11.0259,-0.25635,-9.4873,-13.0767,-4.3589,0.25635,-5.3843,-16.6665,-0.76904,
11.5386,7.9487,4.231,0.64111,28.8462,-3.9741,4.3589,-8.9741,-1.2822,4.3589,-0.76904,-10,-10.5127,2.3076,
