"AF3","AF4","F3","F4","F7","F8","FC5","FC6","O1","O2","P7","P8","T7","T8",
-3.5896,-0.51294,9.2307,11.7947,38.9744,-20.5129,-3.5896,-8.718,-0.51294,-4.1028,2.051,12.3079,0.51294,8.718,
-5.1282,0.51294,7.1794,8.718,44.1028,-19.4871,-4.1023,-9.2307,-0.51294,-5.6409,2.5642,15.3845,-3.5896,7.6926,
-4.3591,-1.7947,8.9744,3.8459,44.8718,-22.8206,-0.76929,-12.5642,-2.3079,-0.25659,3.8459,11.0256,0.25659,7.4358,
-2.3079,-3.8459,9.4871,3.3333,42.3079,-26.9231,-3.3333,-16.1541,-4.8718,-0.25659,2.8206,5.8972,0.25659,6.4104,
1.7947,-5.8972,10.5129,4.3591,39.2307,-26.4104,-1.7947,-14.6155,-1.7947,-2.3079,1.7947,2.8206,-2.8206,5.8977,
5.6411,-6.6665,12.8203,7.1797,41.0254,-25.1284,2.564,-9.231,-1.5386,0.5127,-2.564,-0.5127,-2.564,6.1538,
4.8716,-6.4102,12.0513,7.436,42.8203,-25.8975,0.25635,-9.4873,-3.3335,-0.25635,-7.9487,0.76904,-2.3076,4.3589,
3.0769,-3.0769,8.718,6.6667,43.5896,-22.5642,0.51294,-10.2566,-1.0256,-1.5383,-1.0256,4.1023,-0.51294,4.6155,
0.76904,-0.25635,9.4873,7.436,46.4102,-20.769,0.25635,-10.5127,-2.3076,-2.8203,2.8203,-1.2822,-3.3335,5.3848,
3.8462,-0.25635,18.2051,10.5127,48.4614,-23.3335,4.8716,-10,-0.76953,0.25635,-1.2822,-4.8721,-0.76953,8.4614,
0.5127,-4.1025,13.8462,2.564,46.1538,-27.6924,2.564,-10.769,-3.0771,0,-5.6411,-7.6924,0,5.1279,
-4.8721,-4.3589,8.4614,0.25635,51.5386,-22.8208,-0.25635,-7.9487,-5.8975,0.25635,0.25635,-2.3076,0.25635,4.8716,
-6.4104,-4.8718,11.0256,5.3845,42.3079,-27.9485,-0.25659,-10.5129,-1.282,-2.8206,5.3845,2.3079,0.25659,8.4617,
-0.76953,-2.8208,14.1025,6.4102,30.5127,-28.4614,1.2817,-12.5645,-0.25635,-7.436,0.25635,1.2817,-1.7949,8.9741,
5.8977,-1.282,11.5388,2.8206,44.8718,-13.4614,1.282,-13.0769,-2.8206,-3.8459,-1.7947,2.8206,-1.7947,5.8977,
7.9485,-0.76929,10.5129,3.3333,54.1023,-5.8977,-2.8206,-19.7439,-4.8718,-4.8718,0.76929,3.3333,-5.8977,5.3845,
7.6926,3.5896,15.8977,10.7693,44.1028,-12.8206,-3.0769,-21.0256,-5.1282,-9.2307,1.5383,-1.5383,-7.6921,5.6414,
8.2051,1.5386,16.9233,13.3335,36.9233,-14.3589,0,-15.8975,-5.6411,-6.1538,-2.564,0,-4.1025,4.1025,
9.2307,-1.0256,9.7439,11.282,40.5129,-9.7434,1.0256,-14.8718,-4.6155,-1.0256,-5.6409,12.8206,-2.5642,6.6667,
1.282,-3.3333,-0.76929,4.3591,37.1794,-9.4871,0.76929,-21.282,-1.282,-0.76929,2.3079,12.5642,-1.282,11.0256,
-4.1025,-5.6411,0,4.1025,30.769,-12.3081,-1.5386,-23.0771,0,0,7.6919,9.2305,-1.0259,9.7437,
0.76929,-5.3845,4.8718,13.0769,29.9998,-15.1282,-4.8718,-17.1794,-2.8206,-0.76929,5.3845,18.2048,-3.3333,5.3845,
2.0513,-7.6924,2.0513,9.2305,29.7437,-14.8721,-3.0771,-20,-7.1797,-3.5898,1.5386,17.9487,-1.5386,2.564,
-0.51294,-6.6667,2.5642,0.51294,31.7952,-9.7434,-1.0256,-22.051,-6.1536,-3.0769,3.5896,12.3079,0.51294,6.1541,
1.5386,-9.231,6.6665,2.564,32.8203,-9.7437,-1.5386,-18.4614,-1.5386,-3.5898,9.231,6.6665,-2.564,7.6924,
3.8459,-15.1282,7.4358,7.4358,31.0256,-16.6667,-4.8718,-16.6667,-2.8206,-4.8718,4.3586,3.3333,-4.3591,2.8206,
0.51294,-16.9231,6.6667,8.2053,25.6414,-16.9231,-5.6409,-15.3845,-4.1023,-2.5642,3.5901,9.7439,-0.51294,4.1028,
-7.9485,-20.2561,2.8206,4.3591,16.6667,-15.6409,-4.3586,-18.718,0.76929,-2.8206,7.949,15.1282,-0.76929,7.4363,
-6.1538,-18.4614,5.1284,9.7437,18.9746,-12.3076,-8.2051,-18.9741,2.0513,-2.0513,7.6924,12.3076,-2.564,5.6411,
0,-17.436,10.769,12.3076,19.4873,-12.3076,-9.231,-14.3589,0,0,4.6152,4.1025,-2.564,5.1284,
-0.5127,-18.9741,8.7183,7.6924,18.4614,-14.8716,-3.5898,-14.8716,0.51269,-0.5127,3.0771,5.6411,-2.0513,6.667,
0.25659,-12.051,5.8977,13.5896,29.4871,-9.4871,-5.8972,-16.1541,-0.25659,-3.3333,1.282,12.0515,-2.8206,5.8977,
5.1282,-7.6921,8.718,18.4617,37.4358,-7.6921,-7.1794,-14.8718,-0.51294,-4.6155,0.51294,10.7693,-2.5642,4.6155,
7.1797,-11.7949,10.2563,14.3589,35.8975,-8.2051,-4.6152,-17.436,-1.5386,-3.0767,1.5386,7.6924,-2.564,6.667,
1.7949,-16.1538,6.4102,10,33.0767,-9.4873,-7.9487,-20.7695,-3.3335,-1.7949,1.7949,3.3335,-4.3589,5.8975,
-0.25659,-14.1023,6.9231,11.0256,35.1282,-12.051,-5.8972,-15.6409,0.25659,-1.7947,7.949,3.8459,-1.282,6.9231,
-1.5386,-13.3335,3.5898,7.1792,33.3335,-12.3076,-2.0513,-13.8462,0,-3.5898,5.1279,2.0513,0,8.7178,
-2.564,-13.8462,-1.5386,6.6665,28.7178,-7.6924,-0.5127,-13.3335,2.564,1.0259,0.5127,-1.0254,1.5386,10.769,
-1.5381,-11.2817,0,12.3081,29.231,-3.0767,-5.1279,-10.769,0,-1.5381,1.5386,0.51318,0.51318,9.231,
1.7949,-9.4873,5.3848,13.5898,36.1538,-0.25635,-3.8462,-13.0767,-3.3335,-6.9229,0.25635,3.8462,-1.7949,7.436,
2.3076,-14.1025,0.25635,5.3848,30.5132,-2.3076,0.76953,-14.6152,-0.25635,-4.8716,-0.76904,2.3076,-2.8203,6.4106,
6.9231,-7.9485,-0.25659,3.8459,32.5642,2.8206,-0.25659,-8.9744,0.25659,-3.8459,-1.282,3.3333,-1.7947,8.9744,
7.949,-5.3845,5.3845,9.4875,33.5901,-2.3074,-1.282,-13.0769,-1.282,-2.8206,-4.3586,6.9231,1.282,10.5129,
1.7949,-14.1025,0.25635,10.5132,18.5901,-15.1279,-5.3843,-18.2051,-1.7949,2.8208,-5.3843,8.9746,-0.25635,8.9746,
5.8975,-12.0513,0.25635,12.0513,16.1538,-0.25635,-5.8975,-13.0767,-0.25635,3.8462,-1.2817,11.5386,-2.3076,11.0259,
11.2822,-9.7432,2.0513,12.8208,19.4873,14.7437,-5.1279,-10.769,-3.0767,-4.6152,-2.0513,6.1543,-3.5894,6.667,
9.4873,-3.3335,0.25635,14.1025,4.4873,23.8462,-5.8975,-7.9487,-2.3076,-4.8721,2.3076,12.0513,-1.2822,6.4102,
3.5898,-7.6924,-2.0513,6.1538,-10.5127,21.0254,-10.769,-11.2822,0.5127,-1.0259,7.6924,20,-0.5127,9.231,
4.1028,-15.8972,1.5383,2.0515,-25.5127,21.0256,-15.3845,-12.3074,-1.5383,-3.5896,3.0769,8.2053,-3.0769,7.1794,
9.7437,-7.1797,7.6924,11.2817,-21.0259,29.2305,-11.2822,-5.6411,0,-4.1025,2.564,0,0,7.1792,
5.1282,-5.6409,4.1028,11.282,-19.4871,29.7439,-9.7434,-11.7947,-2.051,-6.1536,0.51294,2.5642,-0.51294,3.5901,
6.9233,-6.4102,4.3589,12.564,-21.7949,31.5386,-5.8975,-10,-1.7949,-5.3848,-0.76904,10,0.76904,7.9487,
9.7437,-7.6919,6.667,14.8721,-18.9741,31.7949,-6.6665,0,-2.564,-5.6406,-1.0254,8.7183,0,9.231,
8.2051,-4.6152,9.7437,20,-9.231,30.769,-10.2563,0,-4.1025,-4.1025,0,8.2051,-2.564,6.1538,
6.9233,-1.2817,6.4106,25.8975,-14.1025,30.5132,-11.0254,-2.8203,-1.2817,-1.2817,0.25635,10.5132,-0.25635,8.4619,
7.1797,-3.0767,-1.5386,18.9746,-28.2051,28.2051,-9.7437,-4.6152,-0.5127,-4.1025,0.51269,5.1284,0.51269,8.2051,
6.6667,-4.6155,1.0256,14.8718,-26.1541,29.2307,-10.7693,-4.6155,-3.5896,-6.6667,2.051,8.718,-1.0256,6.1541,
3.8462,-10.5127,1.2822,17.6924,-25.3848,30,-15.1279,-4.3589,-5.8975,-5.3848,-1.2822,14.6152,1.7949,5.8975,
1.2822,-9.4868,-1.7949,18.7183,-24.8716,32.0513,-11.0254,-1.2817,-0.25635,-0.25635,0.25635,11.0259,7.436,12.0513,
-4.1025,-8.2051,-6.1538,16.9233,-23.5894,28.2056,-9.7432,-4.6152,0,0,1.5386,3.0771,2.0513,13.3335,
-3.5896,-6.6667,-6.1536,18.9744,-23.0769,26.1541,-7.1794,-7.1794,-0.51294,0.51294,2.5642,6.1541,0.51294,9.7439,
-4.1025,-6.1538,-8.7178,13.8462,-22.0513,24.6152,-6.6665,-3.0767,-0.5127,0.51269,3.0771,11.2822,3.0771,7.1797,
-8.7178,-12.8203,-10.2563,4.6152,-23.0771,18.4614,-9.7437,-3.5898,0,0.5127,2.564,9.7437,0,8.2051,
-2.3079,-15.6409,-8.4617,4.3591,-25.8972,16.1541,-13.0769,-4.8718,0.76929,0.76929,3.8459,5.3845,-0.76929,11.5383,
0,-12.3076,-7.1797,4.6152,-24.1025,18.4614,-14.3589,-5.1284,-1.5386,0.5127,0,1.5386,1.0254,10.2563,
-6.1538,-14.8716,-9.7437,0,-20,17.436,-10.2563,-7.6924,1.0259,2.564,2.0513,0,1.5386,7.1797,
-5.8972,-16.1541,-11.0256,4.8718,-21.7947,15.6409,-11.0256,-4.8718,2.8206,0.76929,5.8972,-0.76929,1.282,10.5129,
-8.2051,-13.3335,-8.2051,8.2051,-25.6411,15.8975,-11.7949,-2.564,-0.51269,0.5127,2.564,2.0513,3.0767,13.8462,
-15.6411,-13.5898,-7.436,1.7949,-26.9233,17.6924,-11.5386,-3.8462,-0.25635,2.8203,0.25635,3.333,1.7949,10.5127,
-9.4871,-9.4871,-5.3845,6.4099,-18.2053,20.2561,-10.0002,-3.3333,1.7947,1.282,4.3586,0.76929,-0.76929,10.5129,
-10.7693,-11.7947,-7.1794,7.1794,-16.9231,14.3591,-9.2307,-3.0769,0.51294,-0.51294,6.6667,1.5383,1.5383,10.7693,
-20.2561,-17.1794,-9.9998,2.3079,-22.8206,12.5642,-9.9998,-4.8718,-1.282,1.282,6.9231,8.9744,2.3079,9.4871,
-13.8462,-11.2817,-7.1792,10.2563,-13.3335,20,-8.2051,-7.1792,1.0259,0,6.1538,10.7695,0,9.7437,
-7.4358,-6.4104,-5.3845,17.1794,-5.8972,23.3333,-2.3079,-4.8718,1.7947,-1.282,5.8972,9.4871,1.282,11.0256,
-16.4099,-8.2048,-6.1536,11.7952,-8.2048,24.1028,-2.5637,-1.0256,-1.0256,1.0256,5.6414,13.3337,3.0769,10.7693,
-24.3591,-16.6667,-8.4617,0.76929,-17.6921,18.2053,-9.4871,-5.3845,0.25659,1.282,3.8459,7.949,-0.25659,5.8972,
-21.5386,-15.8975,-5.6411,4.1025,-20.5127,12.8203,-7.6924,-8.2051,3.5898,1.5386,5.6411,7.1792,-1.5386,7.6924,
-18.7183,-8.9746,-7.436,7.9487,-14.1025,15.6411,-5.3848,-7.9487,-0.25635,0.25635,10,9.4873,0.76904,10,
-23.5896,-10.7688,-9.2307,4.6155,-12.3074,20.0002,-6.1536,-8.7175,-1.0256,1.0256,9.7439,7.1799,3.5901,8.2053,
-22.5642,-10.7693,-7.1794,5.6409,-14.8718,18.4617,-6.6667,-8.718,-1.0256,1.0256,9.2307,6.6667,3.5896,9.2307,
-22.0513,-10.2563,-5.1284,7.1797,-17.9487,17.436,-7.6924,-9.231,-0.5127,0.5127,8.7178,6.1538,3.5898,9.7437,
-21.282,-10.5129,-3.3333,7.949,-20.7693,15.6409,-8.4617,-9.9998,-0.25659,0.25659,7.949,5.3845,3.3333,10.5129,
-20.769,-10,-1.2822,9.4873,-23.3335,14.6152,-9.4873,-10.5127,0.25635,-0.25635,7.436,4.8716,3.3335,11.0259,
-20.2563,-10.5127,0.25635,10,-26.4102,12.564,-10.5127,-11.0259,-0.25635,-0.76953,6.4102,3.8462,2.8203,11.5386,
-21.0256,-11.7947,1.0256,10.2566,-30.7688,9.2312,-12.8206,-13.3333,-1.0256,-2.5637,4.1028,2.0515,1.5388,10.2566,
-20.0002,-12.8206,-1.5388,12.3074,-25.6414,9.7434,-10.2566,-7.6926,-1.0256,3.5896,4.615,7.6921,1.0256,10.2561,
-21.5383,-17.9485,6.6667,11.2825,-31.282,3.5901,-11.282,-8.7175,-4.1023,1.0256,1.5388,8.718,-1.0256,8.718,
-20.7695,-14.6157,10.5127,12.0513,-39.7437,0.25635,-12.5645,-10.5127,-0.25635,-0.76953,5.3843,4.3589,3.333,10.5127,
-22.0513,-14.8716,-2.564,5.1284,-27.1792,0,-9.7437,-12.3076,2.564,3.5898,8.2051,0,3.0771,10.2563,
-20.769,-17.1792,-6.9229,-1.7949,-12.1792,3.3335,-10,-16.1538,1.7949,4.3589,6.9233,4.8721,1.7949,11.0259,
-19.7437,-19.7437,-0.76904,0.25635,-5.8975,-0.25635,-12.564,-15.1279,2.3076,1.2822,4.8721,10,5.3848,14.1025,
-20.5127,-19.4873,-2.0513,8.2051,-18.9741,-6.6665,-11.7949,-6.1538,3.0771,2.0513,6.1538,7.1797,5.6411,12.3076,
-21.7949,-14.6152,-3.8462,14.1025,-12.0513,-0.76904,-13.0771,-4.8716,0.76904,1.2822,5.8975,1.7949,0.76904,8.4614,
-23.5896,-13.8459,3.5896,14.3591,-10.2566,1.5383,-16.9231,-11.282,0.51294,1.0256,3.0769,-1.0256,-0.51294,7.1794,
-22.5642,-13.8464,4.1023,14.3591,-16.9231,-0.51294,-15.8977,-10.7693,-2.0515,2.051,1.0256,3.0769,0.51294,9.7434,
-17.9487,-10.2563,-3.0767,16.9233,-15.8975,3.0771,-10.769,-8.2051,-1.5386,1.5386,2.0513,6.1538,1.5386,12.3076,
-16.6667,-9.4871,0.76929,17.6921,-9.9998,6.9231,-12.051,-8.4617,-0.25659,-0.76929,1.282,5.8972,0.25659,11.0256,
-17.4358,-9.2307,7.1794,14.3591,-4.6155,9.7434,-13.8459,-6.6667,-1.0256,1.0256,3.0769,5.1282,-1.0256,8.2053,
-21.5381,-14.3589,-2.0513,8.2056,-10.769,6.1543,-10.2563,-10.2563,0,4.1025,6.667,2.5645,0,5.1284,
-22.0513,-13.8462,-8.7178,7.6924,-9.7437,5.1279,-10.2563,-8.7178,1.5386,2.564,5.1279,7.6924,-1.5386,6.1538,
-16.1538,-8.9741,-6.9229,10,-8.4614,4.3589,-12.0513,-2.8203,1.7949,2.8203,11.0259,9.4873,-1.7949,10.5127,
-19.4873,-11.2822,-8.2051,8.2051,-16.9233,0.5127,-5.6411,-6.6665,4.6152,6.6665,17.9487,4.6152,-0.51269,13.8462,
-20.769,-16.6665,-10,2.3076,-18.2051,2.3076,-3.3335,-8.4614,9.4873,10,15.6411,6.4102,-2.3076,18.2051,
-13.333,-15.3843,-9.7437,-1.5386,-11.7949,4.6157,-4.6152,-3.0767,15.3848,12.8208,18.4614,9.7437,1.5386,22.0513,
-13.8462,-9.7437,-10.2563,1.0259,-17.436,-2.0513,-6.1538,-1.0259,16.4102,16.4102,22.564,8.7178,1.0259,23.0771,
-13.5898,-8.4617,0.76929,15.6409,-21.282,-2.8206,-1.7947,-0.76929,20.7693,22.8206,19.7434,16.1541,-3.3333,26.9231,
-15.8975,-18.4614,4.1025,13.333,-19.4873,-3.5898,-4.1025,-10.2563,13.8462,8.2051,4.7434,12.3076,-14.3589,16.9229,
-11.5383,-8.4617,-2.3079,6.9231,-11.5383,2.3079,-3.8459,-6.4104,7.9485,3.3333,6.4104,6.9231,-12.5642,13.0769,
-15.1282,-5.8977,-8.9744,0.25659,-17.6921,0.76929,-4.8718,-0.25659,6.9231,7.9485,19.2307,0.76929,-10.5129,15.1282,
-14.1025,-11.0259,-0.76904,6.4102,-17.1797,-0.25635,-5.3848,2.3076,7.436,3.3335,18.7178,0.25635,-10.5127,17.6924,
-11.0259,-9.4873,4.8716,13.0767,-6.4102,-0.25635,-4.8721,0.25635,2.3076,-3.8462,4.3589,7.9487,-14.1025,15.1279,
-10.5129,-7.4358,-2.3079,8.9744,-0.76929,2.8206,-0.76929,-2.3079,4.3586,0.76929,5.3845,15.1282,-13.0769,14.6155,
-12.3079,-12.3079,-9.7439,7.6921,-10.2566,1.0256,-1.0256,-1.0256,8.7175,6.1536,13.8459,17.4358,-8.718,18.9744,
-15.3845,-18.9744,-11.282,6.1541,-17.9485,-8.2053,-0.51294,0.51294,10.7693,7.1794,10.7693,19.4871,-7.1794,21.0256,
-15.8972,-15.3845,-7.6921,3.5896,-11.7947,-5.1282,1.5383,-1.5383,15.8972,9.2307,11.282,21.0256,-5.6409,22.5642,
-15.8975,-9.7437,-3.5898,5.1279,-18.4617,-2.564,0.5127,-1.5386,19.4873,12.8203,22.564,18.9741,-0.5127,27.1797,
-14.1025,-15.1279,-7.4355,4.8721,-29.4871,-9.4868,-1.7949,1.7949,16.1538,11.5386,23.3335,16.1538,-2.3076,25.3848,
-7.4358,-11.0256,-3.3333,6.9231,-14.4871,-8.4617,-3.8464,3.3333,12.5642,9.9998,13.5896,14.6155,-8.4617,21.7947,
-6.6665,-10.2563,1.0259,0,0.51294,-14.3589,-10.2563,-9.7437,5.1284,0,1.0259,1.5386,-15.8975,13.8462,
1.282,-6.9231,6.4104,3.8464,8.9744,-19.7434,-6.9231,-12.051,6.9231,-1.282,2.8206,-1.7947,-12.051,14.6155,
0.5127,-10.2563,3.0767,9.7437,10.769,-28.2053,-8.7183,-16.4102,5.1279,-0.5127,2.0513,-9.7437,-17.436,12.8203,
-0.76929,-13.0769,0.76929,8.9744,15.6409,-37.1797,-8.9744,-20.7693,4.3586,1.282,3.8459,-18.718,-17.6926,12.051,
2.0513,-9.231,0.5127,5.1279,17.436,-43.5898,-5.6411,-17.9487,3.0767,-0.51269,5.1279,-13.8462,-13.3335,11.2817,
2.3079,-7.4358,0.25659,4.3591,19.2307,-39.2307,-1.282,-14.6155,4.8718,-0.25659,4.8718,-1.7947,-11.5383,11.5383,
-5.6409,-12.3079,-3.5896,2.5642,15.8977,-36.9231,-1.5383,-13.3333,7.1794,1.5383,4.1028,2.0515,-13.3333,12.8206,
-8.4614,-9.4873,-10,2.3076,14.6152,-36.6665,-2.3076,-12.564,7.9487,4.8721,6.9233,4.3589,-13.5898,16.1538,
-8.9746,-6.9233,-14.1025,2.3076,13.5898,-38.2051,-2.3076,-14.6152,8.4614,5.8975,10.5127,2.8203,-11.0259,16.6665,
-7.9487,-10,-6.4106,6.9229,12.0513,-39.231,-1.7949,-10.5132,10.5127,4.3589,10.5127,1.7949,-7.436,17.1792,
-5.3848,-11.0259,0.76904,8.4614,12.0513,-37.6924,-2.8203,-8.4614,6.9229,0.76904,7.436,-0.76904,-11.0259,15.1279,
-1.0256,-7.6926,1.0256,10.2561,11.282,-39.4873,-5.6414,-13.8464,3.5896,1.0256,5.6409,-3.5901,-17.4363,10.2561,
1.0259,-4.6152,-0.51269,14.8721,10.769,-41.0256,-8.7178,-12.8203,4.1025,0.5127,2.564,-2.564,-20.5127,9.7437,
0.25635,-0.25635,2.3076,17.1797,10.5127,-41.282,-5.8975,-8.9746,7.9487,-1.7949,0.25635,-1.7949,-20.2563,12.564,
-1.0256,1.0256,2.051,12.8206,10.7693,-44.1028,-6.6667,-15.385,3.5896,1.0256,-7.1794,-2.0515,-26.1541,9.7434,
2.0513,-2.0513,-2.0513,9.7437,16.4102,-37.9487,-4.6152,-11.7949,4.1025,9.2305,-3.5898,6.6665,-22.0513,10.2563,
-3.3333,-10.0002,-13.5901,6.9231,11.5383,-34.6155,-4.3591,-7.4358,3.3333,7.4358,3.8459,7.9485,-22.8206,8.9744,
-3.3333,-4.3591,-16.1541,6.4099,8.9744,-35.6411,-3.8464,-4.8718,3.3333,4.8718,5.8972,3.3333,-22.8206,9.9998,
0.5127,-5.6411,-13.8462,1.0254,10.769,-42.5642,-0.5127,-8.2051,8.2051,4.6152,6.1538,-1.0259,-16.9233,11.7949,
0.51294,-11.7952,-14.8718,-0.51294,12.3074,-45.1282,-1.0256,-9.2307,7.6921,3.0769,5.6409,2.5642,-19.4871,11.7947,
-0.76904,-11.0259,-14.6152,0.76904,11.0254,-42.3076,-4.8716,-4.8716,4.3589,3.3335,5.3848,8.4614,-21.2822,13.5898,
1.5386,-12.8203,-12.3076,-2.564,6.6665,-42.0513,-1.5386,-5.6411,9.231,3.5898,7.1797,7.1797,-15.8975,17.436,
0.76904,-12.5645,-16.667,-4.8721,5.8975,-44.3591,-0.25635,-9.4873,6.4102,0.25635,5.8975,1.2817,-18.2051,15.6406,
0,-10.2563,-12.3076,0.5127,8.7178,-47.6924,-3.5898,-7.1797,1.0254,0.5127,7.1792,0,-22.564,13.333,
3.5894,-10.2568,-5.1284,2.564,9.7432,-47.1797,-8.2056,-3.0771,0.5127,0,9.2305,0,-21.5386,12.3076,
3.8462,-11.5386,-8.4614,2.8208,5.8975,-43.3333,-6.9229,-3.8462,3.3335,-1.7949,6.4102,1.7949,-15.6411,12.0513,
-1.0256,-10.2566,-8.718,11.7947,-1.0256,-47.6924,1.0256,-6.6667,8.2048,3.5896,4.1023,8.2048,-10.7693,15.8972,
1.7949,-5.3843,-3.333,17.6924,1.7949,-47.9485,-1.7949,-10,1.2822,0.25635,-0.25635,6.4102,-20.2563,13.5898,
16.7949,3.0767,3.0767,16.4102,16.7949,-32.9485,-1.5386,-4.6152,-1.0259,-3.5898,-0.5127,0.5127,-24.6152,11.7949,
22.051,3.0769,0.51294,7.1794,31.282,-23.0769,-4.6155,1.0256,-0.51294,-2.0515,-2.0515,-3.0769,-20.5129,11.282,
7.1797,-4.6152,-6.6665,5.6411,16.282,-33.3333,-9.7432,-1.5381,0,2.5645,1.0259,0,-20,13.3335,
3.0769,-7.6926,-12.3079,7.1794,1.282,-37.436,-3.5896,-3.5896,7.6921,6.1536,7.1794,-0.51294,-17.4358,18.9744,
2.8203,-7.436,-10,3.3335,3.3335,-39.7437,-2.3076,-3.8462,6.9229,2.3076,2.8203,-7.436,-18.2051,17.1792,
2.0513,-8.7183,-0.5127,4.1025,0.5127,-43.5898,-2.0513,-3.0771,5.1279,2.0513,3.5898,-4.1025,-19.4873,13.8462,
5.8975,-6.4106,-0.25635,4.3589,-5.3848,-43.3335,0.25635,-3.8462,7.4355,2.8203,9.4868,-4.8721,-13.5898,15.1279,
6.1538,-5.1284,-1.5386,5.1284,1.5386,-37.9487,-4.1025,-5.1284,6.6665,2.564,7.1797,-9.231,-9.231,17.436,
2.051,-11.282,-0.51294,6.1536,9.7434,-36.4104,-7.6926,-6.6667,0.51294,0.51294,2.051,-12.3079,-17.4358,13.3333,
12.5642,-8.9744,1.282,9.4871,14.1028,-37.1794,0.25659,-6.4104,-0.25659,-2.8206,0.76929,-13.5896,-24.8718,10.5129,
21.7949,-4.8721,2.3076,5.3843,15.1279,-37.1797,4.3589,-6.4102,5.3843,-2.8208,-2.3076,-8.9746,-19.7437,13.5898,
12.0513,-3.333,0.25635,0.25635,8.9746,-33.0769,-0.76904,-1.2817,8.4614,4.8721,-1.7949,-0.25635,-13.0767,18.7183,
5.3848,-3.8462,-6.4102,2.8203,-0.25635,-32.5642,-2.8203,0.25635,7.436,7.436,1.7949,-1.2822,-17.6924,17.6924,
12.8203,-5.1284,-6.6665,3.0771,0,-33.3333,0,-1.0254,11.7949,5.6411,7.1797,-4.1025,-17.436,14.8716,
13.5898,-5.3848,-9.4873,-0.25635,4.8716,-30.5129,-7.9487,-1.7949,6.9229,3.333,4.3589,0.25635,-16.1538,12.564,
10.2561,-5.1282,-13.3337,-1.0256,1.5383,-28.2053,-10.2566,-3.0769,4.615,5.1282,7.1794,1.0256,-16.9231,15.3845,
13.5898,-4.3589,-15.1279,-2.8203,-6.9229,-29.4871,2.3076,2.3076,16.1538,11.5386,17.1797,-2.3076,-10,21.7949,
21.282,-1.282,-15.1282,-6.9231,-1.7947,-32.564,1.282,4.3591,16.1541,10.0002,10.0002,-3.3333,-5.8972,20.7693,
30,4.8716,-5.3848,-3.8462,11.0254,-29.4873,-4.3594,-0.25635,6.4102,0.25635,0.25635,-6.4106,-10,15.6406,
38.4617,11.7947,2.5642,3.0769,11.282,-24.1028,-1.0256,-1.5383,0.51294,-6.1541,-0.51294,-13.8464,-16.4104,13.8459,
53.4617,17.6924,-0.76904,6.9233,18.2051,-19.7437,3.3335,0.25635,-0.25635,-3.333,-1.7949,-11.5386,-14.6152,14.6152,
61.5383,13.8459,1.0256,8.2048,33.2051,-21.5383,3.0769,-1.0256,-5.6409,-4.6155,-8.2053,-8.718,-15.3845,11.7947,
55.6411,15.1284,12.0513,14.6157,40.2563,-18.2051,1.7949,-1.7949,-9.4873,-8.4614,-10.5127,-11.5386,-19.7437,11.0259,
52.0515,20.2566,9.4871,15.6409,39.2307,-15.6409,0.76929,-0.76929,-5.8972,-7.4358,-7.4358,-13.5896,-19.7434,11.0256,
50.2566,15.8977,0.51294,6.6667,38.9744,-23.5896,0.51294,-0.51294,-3.5896,-4.6155,-5.6409,-13.3333,-17.9485,11.282,
36.9229,5.6411,-2.0513,-1.0259,29.231,-35.3845,3.0771,2.0513,-0.5127,0.5127,-3.0771,-12.3076,-11.2822,15.8975,
21.9229,0.25635,-8.4614,-5.3848,16.1538,-41.2822,1.2822,-0.25635,6.4102,3.8462,-2.3076,-10.5127,-7.9487,16.6665,
13.5898,1.7949,-13.0767,-3.333,11.5386,-34.1023,-3.8462,3.8462,8.4619,3.3335,-1.7949,-6.9229,-9.4868,17.6924,
8.9746,-1.7949,-12.0513,-5.3843,3.3335,-32.051,-4.3589,6.4106,5.8975,1.7949,1.7949,-11.5381,-11.0254,17.6924,
12.0513,1.2822,-6.4102,-4.8716,-1.2822,-31.5383,-0.25635,0.25635,8.9746,5.3848,2.3076,-11.5386,-6.9229,16.6665,
10.2563,7.1797,-4.6152,2.0513,-6.1538,-31.7947,0,0,10.2563,5.6411,-0.5127,-11.2817,-5.1279,18.9746,
0.25635,5.3848,-3.3335,2.3076,-11.5386,-36.1541,-2.3076,4.8716,6.4102,1.7949,-0.25635,-19.7437,-6.9233,17.6924,
0.25635,3.8462,1.2817,4.3589,-1.7949,-34.1028,-4.3594,3.8462,0.76904,-0.25635,-3.8462,-21.2822,-10.5132,11.0254,
5.8975,4.3589,2.8203,8.4614,2.3076,-28.9744,-3.3335,0.25635,-0.25635,-0.25635,-10,-14.6152,-13.0771,11.0254,
5.8972,7.4358,4.3586,9.9998,-3.8464,-25.3848,-1.7952,3.8459,0.76929,-0.76929,-9.4875,-8.4617,-13.5901,18.2048,
3.0769,8.718,5.6409,9.2307,1.0256,-26.1541,-1.0256,8.2048,-2.0515,-1.5383,-4.6155,-6.6667,-15.8977,15.8972,
2.0515,1.0256,1.5388,3.5901,4.1028,-24.1023,-1.0256,3.5901,-4.1023,-5.1282,-4.1023,-11.282,-17.9485,7.1794,
3.8459,4.3591,-1.282,3.8459,4.8718,-14.6155,0.25659,3.8459,-1.282,-1.7947,-0.25659,-14.1028,-12.5642,12.0515,
1.7947,7.4358,-2.8206,5.8972,6.4104,-17.1794,-1.7947,0.76929,-3.8459,-0.76929,2.3079,-18.2053,-13.0769,11.5383,
8.2048,5.1282,3.5896,10.2561,5.6409,-20.0002,-2.5642,-3.0769,-10.7693,-3.5896,2.5642,-19.4871,-14.8718,8.2048,
14.1023,3.8459,11.0256,9.9998,0.76929,-16.6667,-2.8206,1.282,-9.4875,-4.3591,-0.76929,-15.6414,-14.6155,9.4871,
6.9233,3.3335,12.0513,6.9233,-0.25635,-18.7178,0.25635,3.8462,-4.3589,-1.7949,-2.8203,-8.9741,-11.0254,9.4873,
0.76904,3.333,10,10,0.25635,-24.3589,-0.25635,2.3076,-7.436,-0.25635,-2.3076,-4.8721,-11.0259,8.4614,
7.6924,4.1025,11.2822,11.2822,2.0513,-20,-2.564,3.0771,-8.7178,-2.0513,-4.1025,-6.1538,-16.4102,8.7178,
9.7437,4.1025,10.769,10.2563,8.2051,-12.3076,-4.1025,5.1284,-12.3076,-6.6665,-8.2051,-9.231,-20.5127,5.1284,
6.1541,3.5896,8.2053,9.2307,11.282,-8.718,-2.5642,6.6667,-17.4358,-7.6921,-6.6667,-7.6921,-20.0002,2.5642,
7.949,-1.282,8.4617,5.8977,8.4617,-12.051,1.282,2.8206,-15.1282,-7.9485,-2.3074,-7.4358,-17.1794,5.385,
11.0256,2.3079,8.4617,3.3333,6.4104,-17.6921,0.25659,-0.25659,-13.5896,-8.9744,-1.282,-7.4358,-16.6667,7.9485,
12.8208,5.6411,3.0771,-3.5894,3.0771,-18.9741,0,5.1284,-14.3589,-4.6152,0,-5.1279,-15.8975,10.2563,
13.5896,3.3333,-1.282,-5.8977,1.282,-15.1282,6.4104,11.5383,-10.5129,1.282,-1.282,-2.8206,-11.0256,15.1282,
9.2307,2.5642,-1.0256,3.0769,1.0256,-16.4099,5.1282,8.718,-10.7693,-2.5637,-4.615,-2.5637,-11.7947,14.3591,
7.4358,3.8459,0.76929,6.9231,-2.8206,-16.6667,4.3591,5.3845,-11.0256,-1.7947,-1.7947,-0.76929,-9.4871,13.0769,
2.8208,3.3335,-2.8203,4.8721,-12.564,-13.0767,3.8462,8.9746,-11.5386,1.7949,-1.7949,-2.8203,-11.0254,12.0513,
2.3076,5.3848,-1.7949,12.0513,-14.6152,-13.5898,0.76904,11.0254,-10.5127,-0.25635,0.25635,-4.8716,-15.1284,10.5127,
6.4104,4.3591,0.76929,12.0515,-12.0515,-22.3079,-0.76929,6.4104,-9.4871,-4.8718,1.7947,-4.8718,-14.1028,8.4617,
4.8718,4.8718,2.8206,8.9744,-14.6155,-25.3845,1.282,7.4358,-10.5129,-2.3079,-1.282,-4.8718,-10.5129,11.5383,
-2.0513,2.564,3.5898,8.2051,-19.4873,-25.1282,5.1284,7.6924,-7.6924,2.0513,-2.0513,-11.7949,-9.231,13.3335,
-1.5383,2.0515,2.5642,3.0769,-13.8459,-22.5637,3.0769,6.1541,-5.1282,1.0256,-1.0256,-13.8459,-10.2561,10.2566,
2.051,6.1536,1.5383,-2.0515,-9.7439,-16.9231,1.5383,8.718,-6.6667,-0.51294,0.51294,-6.6667,-10.2566,12.8206,
0,3.0771,-0.5127,0.51318,-13.333,-18.4614,5.6411,11.2822,-8.7178,0,0.51318,-3.0767,-9.2305,16.4106,
0.5127,1.5386,-1.0254,7.6924,-5.1279,-13.3335,6.6665,10.769,-11.7949,-0.51269,-3.5898,1.0259,-10.2563,12.8203,
-0.51294,4.1023,-1.0256,8.2048,0.51294,-3.5896,4.6155,7.6921,-10.7693,-1.5383,-4.1028,4.6155,-9.7439,9.2307,
-1.0256,3.5896,-1.5383,9.2307,-4.6155,-7.6921,5.1282,10.2561,-8.2053,-1.0256,1.0256,3.5896,-10.2566,12.8206,
-0.5127,0.5127,-2.564,8.7178,-4.6152,-14.3589,4.6152,13.3335,-8.7178,-2.564,1.5386,2.0513,-12.8203,13.3335,
-2.3079,-0.76929,-1.282,5.3845,-5.8977,-12.0515,3.3333,9.4871,-3.8464,4.3586,0.76929,3.3333,-11.5388,12.051,
-4.8721,-1.7949,0.25635,5.3843,-14.6157,-16.1538,0.25635,2.8203,-4.8721,8.9741,-0.25635,1.2817,-10,13.0767,
-1.0256,0.51294,3.0769,10.7693,-10.7693,-21.0256,6.1536,8.718,-6.6667,4.1023,-0.51294,-6.6667,-6.1541,14.8718,
1.7949,6.9229,3.8462,10.5127,-2.3076,-17.6924,6.9229,15.1279,-5.8975,-1.7949,-3.8462,-13.0771,-7.436,12.564,
0.76929,8.4612,5.3845,8.4612,-2.8206,-10.0002,1.7947,9.9998,-5.8977,-0.76929,-2.8206,-8.9744,-11.0256,11.5383,
-2.3074,1.282,1.282,4.8718,-7.9485,-12.5642,1.282,7.949,-4.8718,1.7952,-1.282,-5.8972,-13.0769,10.0002,
0.76929,5.3845,-1.7952,8.9744,-0.76929,-10.0002,4.3586,16.1536,-3.3333,3.3333,-2.8206,-4.3591,-9.4875,12.051,
0.76904,4.8716,-3.3335,5.8975,0.25635,-8.4614,2.3076,10.5127,-5.8975,-0.25635,-4.8716,-6.9229,-7.9487,11.0259,
0.25635,3.3335,0.25635,4.3589,-8.9746,-14.6152,5.3848,7.436,-4.3589,-2.3076,-0.25635,-3.8462,-7.436,11.5386,
-0.51294,4.6155,0.51294,6.1541,-11.7947,-19.4871,3.5896,9.7434,-5.1282,-3.5896,-3.0769,1.5383,-10.2566,10.2566,
-1.2822,8.9741,-1.2822,6.9229,-4.8716,-5.8975,3.3335,14.1025,-3.8462,0.76904,-0.76904,5.8975,-2.8203,15.1284,
-9.4873,4.8716,-12.5645,0.25635,-14.6157,-1.2822,-0.25635,10.5127,-6.9233,1.2817,2.3076,0.76904,-2.3076,17.1792,
-8.718,6.6667,-10.7693,2.5642,-23.0771,-6.6667,1.5383,11.7947,-4.6155,3.5896,2.051,-1.5383,-5.6414,17.4358,
-4.1028,10.7693,1.0256,7.1794,-19.4871,-4.1028,8.2048,17.4358,-5.1282,2.5642,-1.0256,-1.0256,-4.1028,15.3845,
-11.282,5.6409,2.5642,5.1282,-22.5642,-1.5383,4.6155,16.4104,-10.7693,0.51294,-0.51294,-2.0515,-3.5896,12.8206,
-15.6409,0.25659,-0.25659,8.4617,-28.4617,-8.9744,1.7947,14.6155,-4.3591,2.8206,3.3333,-1.7947,-4.8718,14.1023,
-11.5386,4.3589,0.25635,7.9487,-25.3845,-8.4614,1.7949,16.1538,-2.3076,2.3076,-1.2817,-0.25635,-3.8462,15.1284,
-9.4875,5.8972,0.76929,-3.8464,-24.8721,-0.76929,4.3586,17.1794,-6.4104,2.3074,-3.3333,-1.282,2.8206,16.1536,
-10.0002,2.8206,-0.76929,-3.8464,-26.9231,-1.282,5.3845,16.6667,-5.3845,3.3333,0.76929,-4.8718,3.3333,15.6409,
-6.4104,3.8459,-2.3079,5.3845,-24.8721,-7.4363,1.282,17.6921,-4.8718,1.282,3.3333,-4.3591,-1.282,15.6409,
-9.231,-3.0771,-8.7178,-1.5386,-30.2563,-16.4102,0,12.3076,1.5386,3.0771,10.2563,0,2.564,15.8975,
-16.9231,-9.7434,-15.8972,-12.8206,-37.9487,-18.9744,-1.0256,5.1282,5.1282,5.1282,12.8206,1.0256,4.1028,14.3591,
-16.1538,-0.76953,-11.0259,-1.7949,-28.9744,-10,1.2822,11.5386,0.25635,2.8203,8.4614,-0.25635,3.3335,16.6665,
-12.3079,6.1536,-4.6155,9.2307,-13.9744,-1.0256,3.5896,16.4104,-6.1541,1.0256,3.0769,-1.5383,-1.0256,15.3845,
-13.3335,4.6152,-3.0771,7.1792,-4.1025,5.1279,0,11.7949,-6.1538,2.0513,0,-2.0513,-3.0771,10.769,
-18.2051,-2.8208,-8.9746,0.25635,-12.5645,2.3076,-0.25635,10,-1.2822,0.25635,1.7949,-3.8462,0.76904,11.5386,
-15.8975,-1.0254,-16.4102,-1.0254,-17.9487,-0.51269,3.0771,16.9233,0.5127,1.0259,6.6665,-2.564,3.0771,15.3848,
-10.5129,1.282,-15.6409,-4.8718,-14.1028,2.3079,1.282,14.1028,-3.8459,0.25659,3.3333,-6.4104,-0.25659,9.4871,
-3.8459,3.3333,-3.3333,1.282,-6.9231,5.8972,1.282,7.4358,-5.3845,-4.3591,0.76929,-5.3845,-0.76929,6.9231,
-1.0256,8.2053,2.5642,13.8464,-3.0769,6.1541,-1.5383,12.8206,-11.282,-10.2561,1.0256,-1.0256,-3.0769,6.6667,
1.0256,9.2312,-1.0256,13.3337,-3.5896,8.718,-1.5383,18.9744,-10.7688,-6.6663,4.6155,-4.1023,-4.1023,7.6926,
0.76929,6.4104,-5.8972,5.3845,-5.8972,9.9998,-0.76929,12.5642,-8.9744,-4.3591,0.76929,-11.5383,-6.4104,9.9998,
1.2822,8.9741,-0.25635,6.9229,-1.7949,8.9741,0.25635,15.6411,-7.436,-3.8462,-2.3076,-2.3076,-4.3589,14.1025,
-3.5898,2.564,4.6152,6.6665,-7.1797,5.6411,-2.0513,16.9229,-10.7695,-9.231,-5.1284,2.0513,-9.231,6.6665,
-1.0259,2.0513,4.6152,14.8716,-8.7178,11.7949,-0.5127,15.8975,-8.7178,-8.7178,0.5127,-4.1025,-9.231,6.6665,
0.76904,2.3076,-4.3589,14.1025,-5.8975,14.1025,-0.76904,15.6411,-4.8716,-3.8462,4.3589,-7.9487,-4.3589,11.0259,
-0.76929,5.3845,-5.3845,5.8972,-7.4358,14.6155,-4.3591,18.718,-3.3333,0.76929,2.8206,-0.76929,-2.3079,13.5896,
-0.76929,8.4617,-2.8206,5.3845,-11.0256,15.6409,-3.3333,16.1541,-4.8718,-0.25659,0.25659,0.76929,-8.4617,11.5383,
1.7949,3.3335,-6.4102,3.8462,-10.5127,8.4614,0.25635,11.5386,-8.4614,-2.8203,-0.25635,-9.4873,-11.5386,6.4102,
6.9229,3.8462,-7.9487,-0.25635,-3.3335,3.8462,-0.76904,13.0771,-10.5127,0.25635,0.25635,-11.0254,-10,7.436,
9.9998,5.8972,-5.8977,3.3333,0.76929,7.9485,-3.3333,10.5129,-9.4871,-1.282,-0.76929,-5.8977,-9.4871,9.9998,
9.4873,2.8203,-4.8716,6.4102,-2.3076,6.9229,-2.8203,8.4614,-11.0254,-6.4102,2.3076,-6.9229,-7.9487,8.4614,
7.9487,2.3076,-1.2822,0.76904,-7.436,-0.25635,-0.25635,13.0767,-9.4873,-1.7949,8.4614,0.25635,-4.3589,11.0254,
2.5642,2.0515,-1.5383,-8.718,-11.7947,-4.1023,-1.5383,13.8464,-1.0256,1.0256,6.1541,10.2566,-2.051,12.8206,
1.7949,0.25635,-2.3076,-5.3843,-9.4873,1.7949,-3.8462,13.0771,-0.25635,-2.3076,2.8208,5.8975,-0.25635,13.0771,
0,-2.564,-1.5386,-1.5386,-11.7949,1.0254,2.564,14.8716,-1.0259,0,6.6665,-4.6152,1.5386,14.8716,
-6.1541,-1.5383,1.0256,-7.1794,-15.8977,-7.6926,6.1536,17.4358,2.051,6.1536,9.7434,-1.0256,-1.0256,16.4099,
-7.6924,1.5386,0.5127,-8.2051,-12.8208,-3.5898,-0.51269,13.8462,-5.6411,1.0254,5.6411,2.0513,-8.7183,11.7949,
-5.8975,3.8462,-0.25635,-4.3589,-7.436,8.4614,3.3335,14.1025,-7.436,0.25635,6.9229,-1.2822,-7.9487,12.564,
-15.8977,2.5642,0.51294,-2.5642,-8.2053,3.0769,5.1282,12.8206,-4.1028,-0.51294,4.1023,-3.5896,-8.718,10.7693,
-16.4102,3.0771,9.7437,3.5898,-6.1538,-4.1025,0,11.2822,0,-2.0513,5.1284,-3.0767,-5.6406,8.2051,
-11.2822,2.0513,7.6924,4.1025,-7.6924,-0.5127,-0.5127,13.3335,0.5127,-2.564,9.2305,-5.1284,-0.5127,9.2305,
-14.1025,3.8462,-0.25635,0.25635,-7.9487,3.8462,4.3589,14.6152,-2.8208,-2.8208,4.8716,-2.8208,-1.7949,11.5381,
-18.7183,0.25635,0.25635,-0.25635,-7.9487,1.7949,3.8462,10.5127,-3.8462,-5.8975,2.8203,-2.8208,-6.9233,6.9229,
-14.3591,0.51294,3.5896,6.1536,-7.1794,2.5642,-0.51294,11.7947,-1.0256,-3.5896,7.6921,-2.5642,-5.6409,7.6921,
-20.5129,-0.51294,-1.5383,4.1023,-6.1541,0.51294,1.5383,14.8718,1.0256,-2.0515,5.1282,-1.5383,-3.5896,13.3333,
-25.8977,-1.7952,1.282,2.3074,-5.8977,-1.282,7.9485,16.6667,1.282,-2.3079,3.3333,-2.8206,-3.3333,14.1023,
-22.8208,1.7949,4.8716,2.8203,-13.0771,-1.7949,1.7949,15.1279,-3.3335,-3.8462,3.333,-7.436,-6.4102,8.9741,
-18.4617,3.5896,4.6155,2.5642,-13.8464,-2.0515,0.51294,11.282,-0.51294,-1.0256,6.6667,-6.1541,-2.0515,12.3074,
-23.8459,-0.76929,1.282,-0.25659,-11.5383,-5.8972,1.282,6.9231,0.25659,0.76929,1.7947,-5.8972,-2.8206,14.1028,
-25.8972,-0.25659,0.76929,3.3333,-13.0769,-0.76929,0.25659,11.0256,1.7947,4.3591,-2.8206,-3.8459,-6.4104,11.0256,
-27.1794,0.51294,-0.51294,6.1536,-20.0002,5.1282,-0.51294,7.6921,3.5896,0.51294,-1.5383,-3.5896,-5.6409,8.2048,
-26.6665,2.0513,-0.5127,7.1797,-20.5127,0.5127,-1.0254,1.5386,2.564,-2.0513,1.5386,-3.5898,-6.1538,10.2563,
-20.769,0.76953,0.25635,3.8462,-19.2305,-6.4102,-0.25635,-0.25635,3.8462,2.3076,2.3076,-3.333,-7.436,10,
-14.6152,3.8462,-0.25635,2.3076,-12.0513,-1.7949,0.25635,-1.2822,3.8462,0.76904,2.8203,-1.2822,-6.9229,8.4614,
-16.6665,6.4102,-3.333,7.436,-3.8462,0.76953,-0.25635,3.3335,0.25635,-3.333,5.8975,-1.2817,-5.8975,8.4614,
-20.5129,4.1023,-4.1028,9.2307,-7.1794,-3.0769,1.0256,8.2048,0.51294,-1.0256,5.6409,-0.51294,-3.5896,11.7947,
-17.6924,2.8203,-0.25635,4.3589,-12.5645,-0.76953,-0.76953,3.333,-1.2822,0.25635,2.8203,2.3076,-5.8975,13.0767,
-13.8462,4.1025,3.0767,0,-9.231,0.5127,3.5894,-1.0259,-1.5386,0,5.1279,-2.5645,-5.1284,14.3589,
-15.3845,7.1794,1.0256,-0.51294,-7.6921,-3.5896,5.6409,1.0256,-1.0256,0.51294,1.0256,-7.1794,-1.5383,16.4104,
-12.564,10.5127,-0.76904,5.3848,-7.9487,2.8203,0.76904,6.4102,-2.3076,1.2822,-2.3076,-4.3589,-2.3076,15.1279,
-4.1025,9.7437,0,10.2563,0,8.7178,0,8.2051,-1.5386,-1.5386,3.0767,0,-6.1538,11.2817,
-8.4614,9.4873,-0.25635,5.3848,-0.76904,4.8716,0.25635,2.8203,-5.3848,-4.3589,2.3076,-0.25635,-8.9741,10.5127,
-15.1282,8.4612,1.282,-1.282,-14.1028,0.76929,4.3586,-0.76929,-3.3333,1.282,1.282,-4.8718,-6.9231,14.1023,
-15.1282,2.8206,1.282,2.3079,-19.7434,-2.3074,3.3333,2.3079,-1.7947,1.282,-1.282,-14.6155,-6.9231,13.0769,
-11.2822,4.6152,2.0513,10.769,-14.8721,-3.0771,0,4.6152,0,-2.0513,0,-13.3335,-7.6924,13.333,
-5.3848,7.436,1.2822,9.4873,-7.9487,-2.8203,3.3335,-1.7949,-0.25635,0.25635,2.8208,-4.8716,-8.4614,14.6152,
-1.7949,8.9746,3.8462,13.5898,-2.3076,4.8721,1.7949,-0.25635,-9.4868,0.25635,-3.333,-2.8203,-12.564,8.9746,
0.25635,12.564,13.0771,23.8462,-2.3076,8.9746,-0.25635,6.9229,-10,-4.8716,-5.8975,-0.25635,-14.1025,8.4614,
-3.8459,11.0256,11.0256,16.1541,-8.4617,3.3333,0.25659,2.3079,-5.3845,-6.4104,-0.76929,-0.25659,-13.0769,10.5129,
-12.0513,6.4102,-0.76904,2.8203,-15.1284,3.8462,-3.3335,0.76904,-8.9746,-2.3076,1.2822,1.7949,-12.564,11.0254,
-13.5898,2.3076,-5.3843,-0.25635,-21.7949,5.3848,-4.8716,6.4102,-7.4355,0.25635,2.8208,9.4873,-10,11.5386,
-7.1794,3.5896,-2.5642,5.6409,-17.949,3.5896,-2.5642,5.6409,-7.6921,-4.1028,2.5642,9.7434,-11.7952,9.7434,
-5.1279,6.1538,4.6152,12.3076,-6.6665,8.2051,-2.564,2.564,-13.333,-8.7178,-3.5898,2.564,-17.9487,4.6152,
-3.3335,8.4614,15.1284,12.0513,-5.3848,13.0771,-0.76904,5.3848,-7.9487,-1.2822,-4.8716,0.76904,-14.1025,8.4614,
-0.25635,5.3848,13.0771,3.3335,-5.3843,7.9487,1.2822,-1.7949,-4.8716,0.25635,-2.8203,-2.3076,-12.0513,10.5127,
-3.8464,1.7947,9.9998,3.8459,-4.8718,6.9231,4.3586,-5.3845,-6.4104,-3.8464,0.76929,-0.76929,-10.5129,8.4612,
-10.7693,0.51294,6.1541,8.718,-19.8718,6.6667,1.0256,-0.51294,-7.1794,-4.6155,-1.0256,1.0256,-11.7947,7.1794,
-6.1538,1.0254,0,8.2051,-21.5386,4.1025,0,-0.5127,-3.0771,0.51269,-1.5386,0.51269,-12.3076,12.8203,
-0.25635,4.8716,2.3076,8.4614,-6.5386,6.4102,3.8462,-1.7949,-4.3589,0.25635,-2.3076,-1.7949,-11.5386,7.9487,
0,8.7183,10.2568,9.7437,4.6157,7.6924,1.5386,-2.0513,-11.2817,-5.6406,-7.1792,-5.6406,-13.8462,0,
1.0256,7.6926,13.8464,9.2307,-2.5637,6.1541,4.6155,-1.0256,-7.1794,-2.5637,-4.1023,-6.1536,-8.718,7.1794,
0.25635,4.3589,7.9487,7.9487,-3.8462,5.3848,6.4102,-0.25635,-3.8462,-1.7949,-0.76904,-3.333,-7.436,11.5386,
-2.3079,3.8459,2.3079,3.8459,-0.76929,7.4358,2.8206,-1.282,-2.8206,-1.7947,-1.7947,0.76929,-10.5129,11.0256,
-1.7949,-0.25635,1.2817,0.25635,-4.8721,5.3843,3.333,-1.2822,-1.7949,1.2817,0.76904,-1.7949,-8.4619,11.5381,
-0.25635,0.76953,-0.25635,5.8975,-4.8716,6.9233,6.4102,-0.76904,-1.7949,0.25635,3.8462,-4.8716,-7.436,10,
-0.25659,6.4104,0.25659,9.4871,-0.76929,9.4871,6.4104,-1.282,-1.7947,-1.282,4.3591,-1.7947,-6.9231,9.9998,
-0.25635,5.3848,2.3076,6.4102,0.25635,4.3589,2.3076,-2.8203,-7.4355,-3.333,-0.25635,-3.8462,-7.9487,11.0259,
1.0256,1.5388,3.0769,7.6926,-1.0256,3.5901,4.1028,-1.0256,-8.718,-1.5383,-2.5637,-5.6409,-6.6663,11.282,
-0.25635,-0.76904,1.7949,6.4102,-4.3589,10,6.9229,-1.7949,-4.3589,0.25635,0.76904,-0.76904,-5.8975,11.0254,
-1.282,1.282,-1.7947,1.7947,-4.8718,11.5383,2.8206,-3.8459,-5.8972,-2.3079,3.3333,2.8206,-10.0002,11.5383,
1.7949,4.3589,-2.8203,1.7949,-2.3076,9.4873,3.3335,-1.7949,-4.3589,-3.8462,2.8203,-1.7949,-7.436,7.9487,
-0.51294,5.6409,1.0256,5.1282,-4.6155,9.2307,3.5896,-2.5642,-0.51294,-1.0256,0.51294,-1.5383,-4.1023,9.7434,
-8.2053,1.5383,1.5383,3.0769,-14.3591,1.5383,1.0256,-3.5896,-4.6155,-1.0256,-1.5383,3.0769,-4.6155,15.3845,
-5.6411,-3.0771,-3.0771,0,-16.9233,-1.5386,7.6924,0,0.5127,1.0254,4.6152,0.5127,-3.0771,12.3076,
-2.5642,-1.5388,-7.1799,-1.0256,-13.3337,4.615,6.6663,1.0256,3.0769,1.0256,4.1023,-3.5901,-4.6155,5.1282,
-1.7949,4.3589,-4.3589,3.3335,-9.4873,12.564,-0.25635,2.3076,-2.3076,0.25635,-0.25635,1.2822,-4.8716,10,
0.76929,7.4358,-1.282,12.5642,-8.9744,13.5896,-0.76929,1.282,-7.4358,-1.7947,-3.3333,3.3333,-7.4358,12.0515,
3.0769,6.6667,2.5642,17.949,-6.6667,9.7434,0.51294,-0.51294,-8.2048,-5.1282,-3.5896,-0.51294,-8.718,5.6409,
-0.76929,2.8206,3.8459,8.4612,-11.0256,2.3074,0.76929,-4.8718,-5.8977,-7.4358,0.76929,-3.3333,-4.3591,6.4099,
-0.51269,2.564,1.0254,3.0767,-13.3335,1.5386,0.5127,-5.1284,-3.5898,-2.0513,4.6152,-1.0259,-1.0259,13.3335,
3.8462,1.2822,-2.8203,7.9487,-5.3848,9.4873,-1.2822,0.25635,-6.9229,-2.8203,-0.25635,1.2822,-4.8716,7.9487,
3.8462,2.3076,-1.7949,12.564,0.76904,15.6411,-3.8462,0.25635,-16.6665,-12.564,-9.4873,-0.25635,-11.0259,0.76904,
4.1025,5.1284,4.1025,10.769,2.0513,13.8462,-5.1284,-2.0513,-18.9746,-11.7949,-11.2822,-4.6152,-12.8203,4.6152,
6.9233,2.8208,10.5132,5.3848,1.7949,6.9233,-3.8462,-1.7949,-8.9741,-4.8716,-11.0254,-11.0254,-10.5127,8.4614,
5.3848,3.3335,6.9233,3.8462,1.7949,6.4102,-4.8716,-1.7949,-8.4614,-8.4614,-12.564,-11.5381,-11.5381,6.9233,
1.0256,7.1794,1.0256,7.6921,-0.51294,12.8206,0.51294,-1.5383,-9.2307,-7.1794,-5.1282,-4.1028,-10.7693,7.6921,
0,3.0771,-2.564,7.1797,-7.6924,10.2563,3.5898,0,-6.1538,0.51269,-0.5127,-3.5898,-8.2051,10.769,
2.3079,2.8206,-0.76929,6.4104,-8.9744,7.9485,-3.8459,0.76929,-4.3591,1.7947,-7.4358,-3.3333,-8.9744,15.1282,
1.7949,4.8716,2.3076,5.8975,-11.5386,7.9487,-4.3589,-2.8203,-0.76904,0.25635,-8.9746,-0.25635,-10,11.5386,
-0.25659,2.8206,1.282,2.8206,-16.1541,6.4104,0.25659,-1.7947,-3.3333,0.76929,-4.8718,-4.3591,-11.0256,3.3333,
-1.0254,1.0259,0,1.0259,-20,6.6665,1.5386,1.0259,-4.6152,0,-4.6152,-10.769,-9.7437,7.1797,
0.76904,1.7949,-1.2822,4.8716,-23.8462,8.4614,-2.3076,-0.76904,3.8462,1.7949,-6.4102,-3.8462,-6.9233,13.5898,
2.3076,2.3076,-3.3335,8.4614,-19.7437,10.5127,-8.9746,1.2822,-0.25635,-0.76904,-5.8975,0.25635,-13.0771,7.9487,
6.9229,3.3335,-0.76904,10.5127,-9.4873,12.564,-2.3076,8.4614,-7.436,-1.2822,0.76904,-3.3335,-12.564,6.9229,
0.51269,0,-7.6924,2.0513,-21.5386,5.6411,1.0254,4.6152,-5.6411,-0.5127,0,-2.0513,-9.7437,10.2563,
0,-0.5127,-13.8462,-1.0254,-23.0767,5.1284,-1.5386,2.564,0,2.0513,1.5386,8.2051,-10.2563,12.8203,
5.1282,-5.1282,-14.8718,1.0256,-8.0767,3.5896,-5.6409,1.0256,-6.6667,-3.5896,-1.0256,1.5383,-17.4358,6.1536,
14.8716,0.5127,-4.1025,4.6152,6.9233,0.5127,-0.5127,0.5127,-9.7437,-2.564,-3.5898,-2.0513,-14.3589,6.6665,
13.8462,2.0513,-0.51269,0.5127,10.769,-5.1279,4.6152,-3.5898,-6.1538,0,-4.6152,0,-8.7178,9.7437,
7.4358,0.25659,-7.4358,-2.3079,7.9485,-6.4104,6.9231,-0.25659,-0.76929,1.282,-1.7947,1.7947,-3.8464,14.1023,
1.5383,-5.6409,-9.7434,-5.1282,12.3079,-14.3591,5.6409,1.0256,0.51294,2.0515,-1.0256,-0.51294,-2.5642,10.7693,
1.0256,-9.2307,-2.0515,-7.6926,9.7434,-18.9744,5.1282,-1.0256,1.5383,1.5383,1.0256,-3.5896,-5.1282,5.6409,
2.5642,-1.0256,-3.0769,-6.1541,14.8718,-6.1541,3.5896,1.5383,-1.5383,-0.51294,1.5383,0.51294,-7.1794,10.2561,
-1.7947,2.8206,-10.5129,-3.3333,15.6409,-1.7947,4.3591,0.76929,-2.8206,-0.76929,2.3079,1.7947,-4.8718,15.1282,
-2.8206,2.8206,-5.3845,3.8459,12.051,-8.4617,6.9231,-0.25659,-2.3079,0.25659,2.8206,-2.8206,-4.3591,11.5383,
-0.76904,0.25635,1.7949,4.8716,8.4614,-12.0513,3.8462,0.25635,-5.3848,-0.25635,-0.25635,-4.3589,-7.9487,6.4102,
-2.5642,-2.5642,2.5637,-1.0256,3.5896,-10.2566,5.1282,1.0256,-1.0256,3.0769,1.5383,-2.5642,-5.6414,8.2048,
-9.231,-2.0513,1.5386,-1.5386,2.564,-8.2051,6.6665,-0.5127,1.0254,3.5898,0.5127,-6.1538,-4.1025,7.6924,
-15.6411,-2.8208,0.25635,0.25635,-0.25635,-14.1025,7.436,-0.25635,1.2822,3.3335,2.8203,-6.4102,-3.3335,2.3076,
-17.949,-2.0515,-3.0769,0.51294,-1.5383,-14.8718,6.1536,1.0256,-0.51294,6.6667,5.1282,1.5383,-4.1028,1.5383,
-16.1541,0.25659,-0.25659,6.9231,5.8972,-1.282,3.3333,-2.3079,-4.3591,3.8459,-0.25659,1.7947,-7.4358,8.9744,
-14.3589,-1.5386,5.1279,7.1792,13.8462,6.1538,5.1279,-5.6411,-4.1025,0,0,-3.0771,-9.231,10.769,
-16.4104,-3.0769,3.5896,-0.51294,13.3333,2.0515,2.5642,-4.1023,-4.1023,0.51294,4.1028,-4.6155,-10.2561,4.1028,
-18.7178,0.25635,-1.7949,0.25635,8.9746,-0.25635,1.2822,-0.25635,-1.2817,0.76953,4.8721,-3.8462,-6.4102,5.3848,
-19.231,2.3076,-6.9233,6.9229,3.8462,-0.25635,1.2817,-5.3848,-3.3335,0.25635,2.8203,-4.3589,-6.9233,7.4355,
-12.0513,3.8462,-2.8203,15.1284,5.3848,3.3335,2.8203,-3.8462,-8.9741,-0.25635,0.25635,-1.7949,-12.564,3.8462,
-7.1794,0.51294,3.0769,14.3591,12.3079,7.1794,3.5896,-0.51294,-8.718,-2.5642,-3.0769,1.0256,-16.9231,-0.51294,
-9.9998,0.25659,3.8464,10.5129,12.5642,7.4358,0.76929,-3.8459,-8.4617,-5.8972,-4.3591,-0.25659,-18.2053,2.8206,
-7.1794,3.0769,1.0256,5.6409,8.2053,8.718,3.0769,-2.0515,-6.1541,-3.5896,-1.0256,-6.1541,-9.2307,8.718,
-4.6152,0.5127,-2.564,-0.51269,7.1792,9.7437,7.6924,3.5898,-5.6411,-2.564,2.564,-8.2051,-2.564,5.6411,
-6.9233,0.25635,-4.3589,-0.25635,6.9229,8.9741,6.4102,4.8716,-10,-4.8721,2.8203,-6.4102,-10.5132,0.76904,
-5.6411,1.5386,-3.5898,0,4.6152,9.231,7.1792,2.0513,-9.7437,-3.0771,0,-10.769,-13.8462,1.0254,
-1.5388,2.5637,4.615,2.051,-1.0256,9.7434,7.1794,1.0256,-4.1028,-2.5642,-5.6414,-15.8977,-9.2312,1.5383,
-0.25659,2.8206,13.5896,5.3845,-5.3845,9.4871,7.4358,0.25659,-0.76929,1.282,-3.8459,-8.4617,-9.4871,-0.76929,
0.5127,4.1025,13.8462,3.5898,-5.1279,11.7949,8.7178,-1.5386,-2.0513,1.5386,-1.5386,-6.1538,-10.2563,-0.51269,
-1.0256,4.6155,11.7947,2.5642,-3.5896,13.8459,6.6667,1.0256,-5.6409,-3.0769,-5.1282,-9.2307,-11.282,3.5896,
-1.0256,6.1541,13.8464,10.2566,-4.1023,12.8206,8.2053,1.0256,-3.0769,-2.5642,-4.1023,-7.6921,-10.2566,5.1282,
0.76929,7.4358,12.051,15.6409,-5.3845,12.051,5.3845,-0.76929,-7.949,-6.4104,-6.9231,-8.9744,-12.5642,2.8206,
2.3076,1.2817,3.3335,12.0513,-2.8208,14.6152,0.25635,-0.25635,-17.6924,-11.5386,-12.564,-15.1284,-18.2051,0.76904,
5.6411,-0.5127,5.1284,13.3335,0.5127,20,3.0771,4.1025,-14.3589,-9.2305,-9.7437,-12.3076,-16.9229,-1.5386,
3.8462,5.8975,13.0767,16.6665,-2.3076,18.2051,4.3589,2.3076,-12.0513,-7.436,-10,-11.0259,-17.6924,-3.3335,
0.76929,3.3333,11.0256,6.9231,-5.3845,14.1028,7.949,-0.76929,-8.9744,-4.8718,-8.9744,-16.6667,-13.0769,0.76929,
1.7949,-2.3076,5.8975,-2.8203,-4.3589,17.1797,12.564,2.8203,-1.7949,0.76904,-0.76904,-14.1025,-5.3848,5.8975,
0,-1.5381,7.6924,-4.1025,-5.6411,17.436,9.231,2.5645,-2.0513,1.5386,0,-5.1279,-9.7437,8.2051,
-1.2817,-0.25635,6.9233,0.25635,-7.9487,15.1284,7.436,-0.25635,0.25635,1.2822,-3.333,-0.76904,-13.0767,10.5127,
-1.7949,-0.25635,0.25635,2.3076,-13.5898,14.6152,6.9229,1.2817,-0.76953,0.76904,-2.8208,-3.8462,-8.9746,7.9487,
-3.8462,0.25635,4.3589,3.8462,-13.5898,17.6924,6.9233,4.3589,-3.8462,-1.2817,-0.25635,-5.3843,-7.436,5.8975,
-7.9487,1.2822,14.6152,8.4614,-4.3589,26.4102,2.3076,1.2822,-6.9229,-1.2822,-6.4102,-2.8203,-14.6152,3.8462,
-5.1284,4.6152,16.9229,16.4102,-2.564,30.769,1.5386,0.5127,-5.1284,0.5127,-9.7437,-3.0771,-15.8975,-0.5127,
-4.3591,3.8459,13.0769,19.2307,-12.5642,23.3333,2.3079,4.8718,-5.8972,-2.3079,-10.5129,-8.4617,-15.6409,2.8206,
-5.3845,7.9485,15.1282,24.3591,-6.4104,26.9231,2.8206,11.5383,-7.9485,-2.8206,-8.9744,-6.4104,-17.6921,11.0256,
-7.6924,7.6924,13.3335,23.5898,-1.5386,31.7949,1.5386,7.6924,-6.1538,-4.6152,-8.2051,-5.1279,-18.9741,4.6152,
-7.4358,5.8977,12.0515,17.1794,-11.5383,26.4104,2.3079,1.282,-4.3586,-1.282,-7.9485,-3.8459,-15.6409,4.8718,
-7.1792,3.0771,10.2563,15.3848,-17.436,24.6152,-0.5127,3.0771,-6.1538,0.5127,-8.2051,-4.6152,-16.9229,9.7437,
-7.1797,3.5898,8.7178,18.4614,-12.8208,32.3076,1.5386,7.1792,-2.564,-1.5386,-3.5898,-4.6152,-16.9233,8.7178,
-3.8462,6.9229,9.4873,15.6411,-11.0254,34.6152,2.8203,3.3335,-2.8203,-3.3335,-3.8462,-3.3335,-14.6152,7.436,
1.282,4.3586,4.8718,9.9998,-13.5901,27.4358,3.8459,-1.282,-1.282,-1.282,-3.8464,-4.8718,-11.0256,9.4871,
0.25635,0.25635,-0.25635,7.436,-16.1538,19.231,4.3589,-0.76904,-0.25635,0.76904,-0.76904,-1.7949,-12.564,10,
-4.3591,1.282,1.282,8.9744,-16.1541,20.7693,2.3074,-2.8206,-6.9231,-0.76929,-3.8464,0.76929,-17.6926,6.4099,
-0.76929,2.3079,3.3333,8.4617,-14.6155,22.8206,2.3079,-2.8206,-7.9485,0.76929,-8.4612,-8.4612,-13.5896,6.9231,
1.5383,5.6409,-2.051,4.6155,-14.3591,20.5129,1.5383,0.51294,-5.6409,-0.51294,-10.2566,-15.3845,-11.282,10.7693,
1.0256,8.718,0.51294,6.1541,-16.4104,23.0769,3.5896,-1.0256,-1.5383,-0.51294,-4.6155,-5.6409,-12.3079,12.8206,
-1.2822,2.3076,3.3335,7.9487,-21.2822,22.3076,4.3589,-4.8716,-1.7949,0.76904,-3.8462,-0.76904,-14.6152,7.9487,
0,1.0254,-0.5127,7.1792,-18.9746,18.4614,4.1025,0,-4.6152,4.6152,-6.1538,-1.5386,-13.3335,10.2563,
-2.0515,2.5642,-2.0515,1.0256,-22.0515,11.7947,7.1794,0.51294,-2.5642,10.2561,-2.5642,-0.51294,-9.2307,13.8459,
-5.3848,-0.25635,4.3589,0.25635,-25.8975,8.9741,5.8975,-2.3076,-0.76904,5.3848,-0.76904,1.2822,-11.0259,7.9487,
-1.2822,-0.76953,9.4868,7.9487,-23.3335,10,4.8716,-0.25635,0.76904,-3.3335,-3.3335,0.25635,-13.0771,6.4102,
-1.7947,-2.8206,1.7947,5.8972,-26.9231,7.9485,6.9231,-2.8206,1.7947,0.25659,-0.25659,-1.7947,-11.5383,10.5129,
-13.0769,-2.8206,-6.4099,1.7952,-32.0513,3.8464,2.3079,0.76929,-1.282,8.9744,5.8977,-0.76929,-9.9998,11.5383,
-16.6667,0.76929,-2.8206,4.8718,-27.9487,8.4617,-0.76929,8.4617,-2.3074,8.4617,2.3079,-0.76929,-8.4617,11.0256,
-4.3589,6.9233,-0.25635,11.0259,-14.1025,18.2051,3.8462,5.3848,-2.3076,0.25635,-4.3589,-0.76904,-7.4355,12.5645,
-1.5383,4.6155,-0.51294,9.7434,-8.718,16.4104,5.6409,0.51294,-4.6155,-1.5383,-6.6667,1.0256,-7.1794,11.7952,
-13.0771,-0.25635,1.2817,5.3843,-18.2051,10.5127,1.2817,1.2817,-4.3589,-1.2822,-5.8975,0.25635,-8.4614,9.4868,
-16.1538,3.8462,2.3076,4.3589,-13.5898,14.6152,1.7949,2.8203,-1.7949,-3.8462,-2.3076,-2.3076,-7.436,11.0254,
-14.8721,0.51269,-0.5127,-2.564,0,15.8975,8.7178,-1.0259,0.51269,-1.0259,5.1279,0,-3.5898,11.7949,
-11.0259,-2.8208,-1.7949,-3.8462,2.3076,15.1279,8.9741,-2.3076,0.25635,3.8462,6.4102,-0.25635,-3.3335,12.564,
-5.1282,-0.51294,0.51294,2.051,1.5383,17.4358,1.0256,1.5383,-5.1282,-1.5383,-2.0515,-2.5642,-7.1794,10.7693,
-2.5642,1.0256,5.1282,4.6155,-0.51294,18.9744,-2.5642,4.1028,-9.2307,-5.1282,-5.6409,0.51294,-9.2307,5.6414,
-3.3333,0.76929,4.3586,2.8206,-6.9231,13.5896,-0.76929,0.76929,-8.4617,0.76929,-2.3079,-0.76929,-7.4358,7.4358,
-3.8459,-4.3591,-0.76929,-5.3845,-7.949,5.3845,5.8972,-3.3333,1.282,8.4617,4.3591,-2.8206,0.76929,15.1282,
-3.5896,-7.1794,-3.5896,-8.718,-5.1282,1.5383,5.6409,-1.0256,5.1282,9.2307,6.6667,0.51294,-0.51294,14.8718,
-4.1025,-2.564,-1.5381,3.0771,-10.2563,8.2051,0,0,-3.0767,3.5898,3.0771,1.5386,-9.2305,11.2822,
0.25635,2.8203,-0.76904,8.9741,-11.0259,15.1284,0.76904,-2.8203,-6.4102,1.2822,-0.25635,-4.3589,-9.4873,10,
5.1279,2.0513,-6.667,3.5894,3.0767,15.3843,0,-1.0259,-9.7437,0,-9.7437,-7.6924,-9.7437,6.6665,
6.6667,-0.51294,-8.2048,0.51294,17.949,16.9231,1.5383,2.0515,-10.7693,-4.1023,-11.7947,-5.6409,-11.282,4.6155,
9.4873,3.3335,-2.3076,2.3076,19.7437,15.6411,4.8721,-3.333,-7.4355,-4.3589,-6.4102,-4.8716,-7.9487,3.8462,
11.7949,4.6152,-3.5898,3.5898,12.8203,12.3076,2.564,-5.1284,-9.231,-2.564,-8.7178,-8.2051,-11.2822,2.564,
11.7949,0,-6.1538,3.0767,7.1792,15.8975,2.0513,0,-9.7437,-0.51318,-12.8208,-8.2051,-17.9487,2.564,
10.7695,0,-2.0513,0,7.1797,16.4102,0,1.0259,-7.6924,-1.0254,-8.7178,-5.1279,-15.3848,4.1025,
14.8716,2.564,-2.0513,-1.5386,9.2305,11.7949,1.5381,-1.5386,-1.0259,0,0,0,-6.1538,6.1538,
14.3589,0.5127,-8.2051,-5.1284,3.0767,9.231,1.5386,-3.5898,-1.0259,-0.5127,-1.5386,1.5386,-7.1797,7.6924,
16.667,-0.76904,-2.8203,-4.8716,-0.25635,14.6157,4.8721,0.25635,-1.7949,4.8721,-1.7949,5.8975,-5.3843,15.1284,
16.667,-7.436,0.25635,-6.4102,-1.7949,5.3848,6.9233,-0.76904,0.25635,6.4102,-2.8203,-0.25635,-4.3589,13.5898,
14.6155,-4.3586,-3.8459,-2.3074,1.7952,0.76929,4.8718,1.282,-0.76929,3.3333,-6.9231,-4.8718,-7.4358,10.5129,
11.2822,-0.5127,-10.7695,-1.5386,-2.564,5.6411,1.5386,2.564,-3.5898,4.6152,-4.1025,0.5127,-6.6665,11.2822,
9.4871,-4.3591,-16.1541,-5.3845,-10.5129,4.8718,0.25659,-0.25659,-3.8459,8.4617,2.8206,3.3333,-3.8459,9.9998,
12.051,-1.282,-10.5129,-2.8206,-7.4358,5.3845,0.76929,-0.25659,-4.3591,5.3845,0.76929,0.25659,-6.4104,9.4871,
12.8206,-0.51294,-4.6155,1.5383,-4.1028,8.718,1.0256,0.51294,-3.0769,3.5896,-5.1282,-4.6155,-10.7693,10.2561,
11.5386,0.25635,-5.8975,1.7949,-0.76953,8.9741,0.76904,-0.25635,-2.8208,2.8203,-4.8721,-2.8208,-9.4873,9.4873,
10.769,0.5127,-8.2051,2.0513,0,3.0767,1.5386,0,-5.6411,-2.564,-4.6152,-7.1797,-9.231,5.1279,
12.3076,0.5127,-5.1284,7.1792,-0.5127,6.1538,3.5898,4.1025,-3.5898,-2.0513,-1.5386,-4.1025,-9.7437,6.6665,
8.4617,-1.282,-8.9744,5.3845,2.3079,11.0256,-1.7947,-0.76929,-5.8972,0.76929,-1.7947,7.4358,-12.051,7.4358,
7.436,-3.8462,-7.436,-0.25635,2.8203,6.9229,0.76904,-5.8975,-7.436,0.25635,-3.3335,5.8975,-8.9746,7.436,
10.0002,-4.3591,1.7947,2.3079,0.76929,4.8718,6.4104,-0.76929,-5.8972,-3.8459,-4.3591,-4.3591,-6.9231,8.9744,
3.3333,-5.3845,0.76929,4.3586,1.7947,6.4099,2.3074,-0.76929,-4.3591,-3.3333,-6.4104,-6.9231,-11.5383,6.4099,
-0.25635,-3.8462,-2.8208,6.4102,6.4102,10,2.8203,-3.8462,-0.25635,0.25635,0.76904,-1.2822,-5.3848,9.4868,
-2.0513,-5.6406,-4.6152,7.1797,6.667,8.7183,3.0771,0,-2.0513,-5.6406,1.5386,0,-1.5381,11.7949,
-1.5383,-4.1023,-1.0256,5.1282,10.7693,12.8206,1.0256,1.5383,-6.6667,-5.6409,-4.6155,2.0515,-8.2048,4.6155,
-5.6411,0,1.0254,4.6152,9.2305,15.3843,0,-3.0771,-9.7437,0,-6.667,4.6152,-13.3335,1.5381,
-14.1025,0.25635,-0.25635,8.9746,-5.7695,6.4102,3.8462,-2.8203,-1.7949,2.8208,-1.7949,4.8721,-7.4355,10.5127,
-14.1025,1.7949,-4.8716,8.4614,-17.6924,8.9746,5.8975,0.25635,4.3589,-0.25635,-0.25635,-1.7949,-3.333,12.0513,
-7.6921,7.1794,-5.6409,6.1541,-11.282,23.9746,1.0256,2.5642,-1.0256,1.0256,-1.0256,-5.6409,-8.7175,9.2307,
-12.051,4.3591,-5.3845,4.3591,-21.7947,38.718,-2.8206,3.8464,-2.3074,2.8206,-0.76929,0.76929,-14.1023,8.4617,
-14.3591,3.0769,-4.1023,6.6667,-36.7947,42.0515,-4.1023,8.2053,-1.0256,1.0256,-3.5896,6.6667,-13.3333,6.1541,
-9.4873,6.4102,1.2817,8.4614,-48.4617,57.0515,-6.9233,5.8975,-7.9487,0.76904,-8.9746,0.25635,-16.6665,-0.25635,
-9.231,9.231,6.6665,9.7437,-48.2051,64.6152,-5.1284,3.5898,-7.6924,3.0771,-6.1538,-0.5127,-18.9746,0.5127,
-12.3076,12.3076,3.0771,11.7949,-43.0769,57.9487,-7.1797,5.6411,-5.1284,-3.0771,-4.1025,6.1538,-18.9746,3.0771,
-4.6155,15.3845,-2.5642,14.3591,-38.4614,70.7693,-2.5642,9.7439,-1.0256,-0.51294,0.51294,9.2307,-10.2561,7.6926,
-8.4617,5.8977,-11.0256,7.949,-46.9231,69.4871,-1.282,5.3845,-5.8972,1.282,-5.8972,4.8718,-9.9998,6.9231,
-10,4.3589,-7.436,4.8716,-45.3848,63.333,-2.3076,6.9229,-5.3848,2.3076,-6.4102,10,-11.5386,8.9741,
-9.4873,2.8203,-5.3848,4.8716,-46.4102,62.8203,-1.7949,7.9487,-0.76904,0.25635,-0.25635,5.3848,-14.1025,8.4614,
-6.4102,6.4102,-4.3589,10.5127,-46.4104,63.333,-0.25635,6.4102,-1.7949,-3.3335,0.25635,1.7949,-13.0771,7.9487,
-6.4102,10.5127,0.25635,11.5386,-44.3591,59.7437,-0.25635,7.4355,-2.3076,-0.25635,-2.8208,8.4614,-7.436,8.9741,
-17.1794,4.8718,-2.8206,5.8972,-53.0769,57.1794,-5.3845,7.4358,-3.3333,2.8206,-4.3591,7.9485,-9.4871,4.8718,
-21.5386,1.5386,-2.564,8.2051,-61.0256,55.3848,-7.1792,7.1797,-1.5386,2.564,-2.564,7.6924,-15.8975,4.6152,
-18.4614,0.51318,0,8.2056,-63.5896,50.2568,-5.6406,3.5898,-2.564,0,-2.564,5.1284,-17.4355,5.1284,
-17.6921,3.3333,0.25659,6.4104,-56.6667,53.5896,-5.3845,4.8718,-6.4104,-0.25659,-4.8718,0.76929,-16.6667,5.3845,
-22.0513,4.6152,-0.5127,6.1538,-52.8203,56.9233,-4.6152,6.667,-4.6152,0.51269,-4.6152,0.51269,-17.9487,5.6411,
-25.1282,3.0769,-3.5896,8.718,-57.4358,49.2307,-6.1536,1.0256,-0.51294,0.51294,-2.051,1.0256,-16.4104,6.6667,
-23.3333,3.3333,-3.3333,14.6155,-51.5383,46.4104,-7.9485,0.76929,-0.76929,5.3845,-1.7947,3.3333,-15.1282,8.4617,
-21.5386,-0.5127,1.5386,12.3076,-46.1538,47.1797,-10.2563,0.5127,-6.1538,6.1538,-5.1279,6.1538,-17.9487,2.564,
-17.1792,2.3081,3.8462,7.9487,-49.9998,47.9487,-11.5381,0.25635,-7.9487,1.7949,-5.3843,5.3848,-20.769,-0.25635,
-14.6157,10,-0.25635,12.0513,-50.0002,51.0254,-2.3076,7.4355,0.25635,1.2817,-1.2822,-0.76953,-15.1284,10,
-21.5381,4.1025,-4.6152,7.6924,-50.769,46.667,0,1.5386,0,0.51318,-7.1792,-9.2305,-13.8462,14.3594,
-14.6155,4.3591,4.3591,11.0256,-44.8718,48.9744,-2.8206,0.76929,-2.3079,5.8972,-6.4104,-0.76929,-14.6155,14.6155,
-11.2817,-0.51269,3.0771,11.2822,-43.5896,49.231,-8.7178,2.5645,-4.1025,0.5127,-7.1792,3.5898,-21.0254,1.0259,
-10.5127,-0.25635,2.8203,7.9487,-37.1797,48.9741,-5.3848,2.8203,-2.3076,0.25635,-8.9746,1.7949,-19.7437,8.9741,
-10.5129,2.3079,6.9231,3.3333,-36.1538,41.282,-1.282,1.282,-4.3591,4.3591,-8.9744,-5.8972,-16.1541,10.5129,
-13.8464,6.6663,12.8206,10.2561,-36.9233,42.051,1.0256,3.0769,-1.0256,4.615,-7.1794,-7.1794,-11.7952,-4.4871,
-16.6665,8.4614,12.564,19.231,-36.1538,49.4873,-2.3076,5.8975,0.76904,5.8975,-4.8716,-0.76904,-10,-19.4871,
-19.4871,3.0769,5.6409,13.3333,-37.436,42.051,-7.6921,3.5896,-3.0769,8.718,-3.5896,5.1282,-10.7693,-34.4871,
-22.3074,3.8464,7.4358,6.9231,-36.6665,40.7693,-6.9231,2.8206,-2.8206,8.9744,-4.8718,6.9231,-10.5125,-49.4871,
-18.4614,6.1538,11.2822,6.6665,-32.3079,43.0767,-4.6152,2.564,-0.5127,7.6924,-6.6665,0.5127,-12.8208,-64.4871,
-9.9998,4.8718,10.5129,11.0256,-27.4358,36.6667,-1.282,3.8459,0.76929,9.4871,-0.76929,-2.3079,-12.5642,-79.4871,
-13.0771,6.4102,7.9487,15.6411,-31.5386,27.436,-0.25635,5.3848,-2.3076,3.8462,0.25635,-1.2822,-13.0771,-94.4871,
-17.4358,7.6921,6.6667,12.3079,-34.8718,27.1794,1.5383,4.6155,0.51294,-0.51294,-2.0515,-1.0256,-11.7952,-109.4871,
-16.4102,1.5386,0.5127,3.0767,-35.8975,28.2051,-2.564,2.0513,1.5386,3.0767,-1.5386,-0.51269,-13.3335,-121.0256,
-12.564,0.25635,-4.3589,2.3076,-38.2051,26.4102,-8.4614,3.3335,1.7949,4.3589,0.25635,-0.25635,-13.5898,-117.6921,
-7.1794,3.5896,-1.0256,3.0769,-35.8977,27.1794,-4.1028,6.1536,5.6409,1.0256,3.5896,-4.1028,-11.2825,-110.2566,
-2.8203,6.4102,0.76953,4.3589,-28.4614,29.4873,-1.2817,8.4619,0.76953,-0.25635,0.25635,-1.2817,-13.5898,-106.9229,
-7.436,5.8975,-2.3076,4.8716,-26.9229,29.4873,0.76904,6.4102,-0.76904,1.2822,-3.8462,6.4102,-11.5386,-100.7693,
-14.6157,2.3076,-0.76953,0.25635,-30.5129,29.4868,-0.25635,5.3843,5.8975,6.4102,-2.3076,13.5894,-5.8975,-86.4104,
-13.0769,-0.25659,0.25659,3.3333,-26.9231,28.4617,-2.8206,7.4358,5.8972,8.9744,-1.282,15.1282,-9.4871,-80.2563,
-9.2305,0.51269,-5.1279,7.1797,-24.6152,24.1025,-0.5127,5.1284,2.0513,6.1538,-1.5386,10.7695,-12.8203,-83.5896,
-8.2048,4.6155,-6.1536,1.0256,-28.2048,21.0256,-1.0256,4.1028,2.5642,4.1028,-2.051,9.7439,-10.7693,-80.5127,
-5.8975,5.3843,-1.7949,0.25635,-25.8975,24.8716,-2.3076,7.4355,4.8716,9.4868,-0.25635,12.564,-8.4614,-71.0259,
-5.1279,2.0513,-2.0513,6.667,-23.5894,27.1797,-2.564,7.6924,3.5898,7.1797,-3.0767,12.3081,-10.769,-66.6665,
-7.949,2.8206,-2.8206,3.3333,-20.7693,25.3845,-1.282,5.8972,2.8206,1.282,-5.3845,11.5383,-7.4358,-61.7949,
-7.6924,3.5898,-2.564,-2.564,-19.4868,21.0259,2.0513,9.7437,7.1797,8.7183,-2.0513,9.231,-3.0767,-54.8716,
-6.1541,1.0256,-4.1028,3.0769,-31.7949,15.3845,-1.0256,10.7693,4.1023,11.7947,-1.0256,6.1536,-8.2053,-53.3335,
-4.3589,2.3076,-0.25635,9.4868,-31.5386,18.2051,-0.25635,7.9487,0.25635,4.3589,-1.7949,7.9487,-6.4102,-53.5898,
-2.3076,1.7949,0.25635,4.8716,-16.5386,23.8462,1.2817,11.0254,-0.25635,-1.2822,-5.8975,8.9741,-2.3076,-53.0771,
-1.0254,0,-2.564,0,-1.5386,24.1025,0,12.8208,-2.564,0.5127,-8.2051,8.2051,-7.6924,-48.2051,
-3.3335,-1.7949,1.7949,-3.3335,-4.8721,19.7437,5.3843,8.9741,1.7949,4.8716,-2.8208,8.9741,-6.9233,-39.7437,
-9.7437,-1.5386,0,-3.5898,-11.2822,17.9487,7.6924,7.6924,6.6665,6.1538,0,5.6411,-3.0771,-35.8975,
-15.8977,-6.1541,-11.282,1.0256,-14.3591,14.3586,3.5896,7.6921,7.1794,6.6667,0.51294,-0.51294,-5.1282,-36.9231,
-9.9998,-5.8972,-12.051,6.4104,-18.718,11.0256,2.8206,3.8464,4.3591,6.4104,-0.76929,0.76929,-8.4617,-37.1794,
-2.0513,1.5386,-6.1538,9.231,-8.2051,18.9741,0,0.5127,0,3.5898,-4.6152,9.7437,-12.3076,-33.8462,
-8.4614,2.3076,-6.4102,10,-8.4614,25.3848,-2.3076,2.8203,3.3335,6.9229,-5.8975,12.0513,-12.0513,-30.5127,
-16.6667,-0.76929,-9.4871,6.4104,-21.282,19.2307,1.282,0.76929,4.3591,10.5129,-4.3586,4.8718,-8.9744,-27.9487,
-11.7952,0.51294,-9.7439,-1.5388,-18.4617,14.3586,5.6409,-0.51294,8.2048,8.718,1.5383,2.051,-4.1028,-27.1797,
-9.231,-2.0513,-5.6411,-8.2051,-11.2822,12.8203,4.1025,2.564,11.7949,6.1538,2.564,2.0513,-3.0771,-27.6924,
-8.2053,-1.5383,-3.5896,-3.0769,-4.1028,13.3333,2.051,3.5896,8.718,7.1794,1.5383,4.6155,-2.5642,-21.5383,
-7.6924,-1.0254,-9.231,0,-2.0513,12.8203,2.564,-2.0513,7.6924,7.1797,3.5898,7.6924,0,-17.9487,
-8.4617,-0.76929,-11.5383,0.25659,-6.4104,9.4871,2.8206,-2.8206,8.4617,8.9744,3.8459,6.4104,-0.25659,-15.6409,
-6.1541,-0.51294,-6.1541,2.5642,-11.282,7.1794,3.5896,-0.51294,9.7434,13.3333,0.51294,5.6409,-2.5642,-13.3333,
-4.1028,-0.51294,-3.5896,1.5383,-14.3591,5.6409,6.1541,-2.0515,11.7947,12.3079,0.51294,5.1282,-2.5642,-11.7947,
-6.6667,0.51294,-10.2566,-0.51294,-16.9231,3.5896,4.6155,-1.5383,10.7693,7.6921,2.0515,7.6921,-2.0515,-11.282,
-5.6411,-2.0513,-11.7949,-2.564,-15.8975,2.0513,5.6411,0.5127,11.7949,9.7437,5.6411,14.3589,-0.5127,-9.7437,
-1.0256,-4.6155,-9.2312,-1.5388,-16.9231,2.5637,2.5637,1.0256,9.7434,11.282,3.5896,15.3845,-3.0769,-8.718,
0.25635,0.25635,-5.3843,5.3848,-16.1538,3.8462,-5.3843,-2.3076,2.8208,6.4102,-0.25635,12.5645,-3.8462,-4.8716,
-7.6924,1.5381,1.5381,7.1792,-10.7695,6.6665,-4.6157,-6.1538,0,5.6406,0,9.2305,-1.5386,-4.1025,
-16.1538,0.25635,-0.25635,2.3076,-7.9487,10,4.3589,-0.76904,2.8203,10.5127,-2.3076,8.9741,-0.76904,-3.8462,
-16.6667,-2.3079,-7.9485,-4.8718,-7.4358,8.4617,8.4617,0.76929,4.3591,7.949,-3.8459,6.4104,1.282,-0.76929,
-14.6152,0.25635,-6.4102,-2.8203,-0.76904,9.4873,4.8716,-1.7949,1.7949,3.3335,-2.3076,1.7949,0.25635,-0.25635,
-14.6155,2.3079,-1.282,6.9231,5.8972,11.5383,1.282,-3.3333,-3.3333,6.4104,-1.7947,1.282,-8.9744,-3.3333,
-12.5645,-2.3076,-3.3335,12.564,6.4102,10,1.7949,-4.3589,-1.7949,2.8203,1.7949,2.8203,-11.0259,-4.8721,
-4.6152,2.0513,-0.5127,13.8462,8.7178,11.7949,1.5386,-3.0771,-0.5127,-7.6924,1.5386,0.5127,-7.6924,-3.0771,
-6.1536,6.1541,4.1028,13.3333,1.0256,11.7947,4.1028,-2.051,-0.51294,-2.051,-2.5642,-3.0769,-7.1794,0.51294,
-11.5386,0.76904,-0.76953,13.0767,-6.9233,11.5381,-0.25635,-2.3076,1.7949,7.4355,-0.25635,0.25635,-6.9233,3.333,
-8.7178,-2.564,-5.6411,11.7949,3.0767,12.8203,-7.6924,-3.5898,1.5386,-0.5127,0.5127,4.1025,-10.769,3.5898,
-4.3589,0.25635,-5.3848,5.3843,17.1792,12.0513,-0.25635,-6.9233,0.25635,-2.3076,-3.3335,3.333,-10,6.9229,
-9.7434,-1.5383,-6.1536,1.5383,15.3845,9.7434,1.5383,-10.7693,-3.0769,3.5896,-6.1536,5.6409,-7.1794,10.2566,
-11.282,-5.1282,-2.5642,4.6155,7.6921,9.2307,-1.5383,-6.1536,1.0256,3.0769,-1.0256,10.2566,-7.1794,13.3333,
-11.5386,-5.3848,-6.9229,3.3335,0.25635,4.3589,-0.25635,-5.3848,2.3076,0.76904,-2.3076,5.8975,-11.0259,8.9741,
-14.6155,-4.3591,-17.6926,-0.76929,2.3074,5.8972,1.282,-5.8977,1.282,7.4358,-3.8464,0.76929,-7.4363,6.4099,
-7.1794,-6.1541,-15.3845,-3.5896,6.6667,7.1794,0.51294,-8.718,3.5896,11.282,1.0256,-0.51294,-4.1023,9.2307,
1.0256,-5.1282,-2.5642,-6.1536,2.5642,1.5383,-2.051,-12.3079,0.51294,5.6409,1.5383,-0.51294,-8.2053,10.2566,
-2.564,-6.6665,0,-7.1792,1.0259,3.5898,0,-9.7437,0.51318,7.6924,-2.564,2.0513,-7.1792,8.7183,
-3.8462,-11.5386,-5.3848,-3.3335,5.3848,5.8975,1.7949,-12.0513,4.8716,10.5127,-1.7949,5.3848,-5.3848,8.9741,
-0.25635,-7.436,-3.8462,-1.2822,3.8462,0.25635,-0.76904,-15.6411,1.2822,1.7949,0.25635,5.8975,-10,8.4614,
-2.3076,-0.76904,-2.3076,-1.2817,2.8208,1.7949,3.8462,-8.9741,2.8208,0.25635,-0.25635,4.3589,-7.4355,11.0259,
-14.6152,-3.8462,-12.0513,-2.3076,3.8462,5.8975,2.3076,-3.8462,3.3335,2.3076,-5.3848,2.8203,-7.436,12.0513,
-16.4106,-7.6924,-14.3594,-3.0771,2.564,3.5894,0,-3.5898,4.1025,4.6152,0,9.2305,-4.1025,13.8462,
-15.8975,-11.7949,-9.7437,-7.6924,-4.1025,0.5127,1.0259,-6.1538,6.1538,5.6411,5.1284,8.7178,-0.51269,14.8721,
-19.7434,-10.0002,-5.3845,-3.8464,-3.8464,2.8206,4.3591,-4.8718,7.4358,7.9485,5.3845,2.8206,-2.8206,18.2053,
-22.8206,-7.4358,-8.4617,-0.25659,-0.76929,1.282,5.3845,-7.4358,6.9231,8.4617,6.4104,0.25659,-4.8718,16.1536,
-19.231,-7.436,-14.1025,-3.3335,-0.76904,0.76904,2.3076,-11.5386,4.8716,8.4614,2.3076,1.2822,-4.8716,13.5898,
-15.3845,-6.1541,-8.718,-3.5896,-1.5383,3.0769,1.5383,-9.7434,4.6155,10.2566,1.5383,6.1541,-2.051,15.8977,
-17.4358,-7.1794,-0.51294,-3.0769,-2.5642,0.51294,1.0256,-9.7434,2.5642,7.1794,1.5383,7.1794,-5.1282,12.8206,
-16.4102,-5.6411,2.564,3.0767,1.5386,0,0,-8.2051,-0.5127,4.6152,-1.5386,4.6152,-8.7183,12.8203,
-18.4617,-11.2825,3.0769,5.1282,-2.0515,-1.0256,2.5637,-9.2312,1.0256,9.7434,-3.5901,2.5637,-4.6155,13.8459,
-20.2563,-14.6157,-0.25635,0.25635,0.76904,1.7949,2.3076,-11.5386,-0.76953,8.9741,-5.8975,3.8462,-3.3335,13.5898,
-10.2563,-3.0767,0.51269,3.5898,13.3335,13.8462,-0.5127,-8.2051,-2.0513,5.6411,-2.564,10.2563,-5.6411,24.6152,
-10.0002,-1.7952,4.8718,9.4871,1.282,8.9744,-2.8206,-10.0002,-1.282,6.9231,-1.282,6.9231,-11.0256,24.8718,
-13.0769,-3.3333,11.0256,14.1028,1.7952,4.3591,-0.76929,-9.9998,0.76929,5.8977,-5.8972,-2.8206,-9.9998,14.6155,
-10.7695,-0.5127,8.7178,8.2051,16.7952,6.1538,0.5127,-10.2563,2.564,-1.0259,-8.2051,-7.6924,-4.6152,12.3076,
-11.5386,-0.25635,3.8462,2.8208,17.1797,2.8208,-0.76904,-12.564,2.8208,0.25635,-3.8462,-2.3076,-2.8203,17.1797,
-17.9487,-8.2051,0,1.5386,3.5898,3.0767,0,-12.3076,3.5898,8.7178,-3.0771,-0.5127,-8.2051,22.0513,
-17.1797,-12.564,-0.25635,-0.76904,12.564,8.9741,4.8716,-6.4102,6.9229,12.564,-1.2822,0.25635,-8.4614,24.8716,
-16.1541,-10.5129,-2.8206,-2.8206,20.7693,4.3591,-0.25659,-12.0515,2.3079,6.4104,0.25659,1.282,-5.3845,22.3079,
-19.4873,-10.2563,-0.5127,-1.0254,12.8208,1.5386,-2.0513,-19.4873,2.0513,7.1797,0.5127,2.0513,-2.564,21.5386,
-19.4873,-12.3076,-0.5127,-2.0513,6.1538,3.5898,0.5127,-15.3848,5.1279,9.2305,-3.0771,0.5127,-5.6411,20,
-16.4104,-9.2307,-1.0256,-5.6409,10.2561,4.1023,2.051,-14.8718,8.2048,6.6667,-5.6409,1.0256,-7.1794,17.9485,
-14.6152,-7.9487,2.3076,-3.3335,13.0767,0.25635,8.9741,-18.2051,13.5898,6.9229,-0.25635,-0.25635,-1.2822,18.7178,
-13.0767,-8.4614,2.3076,3.3335,7.9487,-2.8203,6.4102,-17.1792,9.4873,5.3848,-2.3076,-4.8716,-3.8462,17.6924,
-7.4358,-8.4617,4.8718,8.4617,5.8972,0.76929,0.25659,-17.6921,1.282,-0.25659,-11.0256,-5.8972,-9.9998,13.5896,
-1.5383,-2.5637,13.8464,12.3079,13.3337,4.6155,4.1028,-15.3845,1.0256,-1.0256,-9.7434,-8.2048,-5.6409,16.9231,
-2.051,-1.5383,12.8206,6.6667,12.3079,-1.0256,7.6921,-13.8459,4.1028,1.0256,-1.5383,-9.2307,-1.0256,18.9744,
-2.0515,-8.2053,7.1794,-3.0769,2.051,-8.2053,6.6667,-17.949,7.6921,4.1023,0.51294,-2.5642,-0.51294,13.8459,
-4.6155,-6.6667,8.2048,-3.5901,3.5896,-5.6414,5.6409,-16.9231,8.7175,7.6921,-2.0515,1.0256,-1.0256,16.4099,
-14.1028,-5.385,4.8718,-4.3591,5.8972,-2.8206,6.9231,-14.6155,6.9231,5.3845,1.282,-2.8206,-1.282,26.4099,
-13.0771,-7.436,1.7949,-5.8975,3.8462,-2.3076,6.9229,-18.2051,7.4355,1.7949,4.3589,-1.7949,-4.8721,26.4102,
-4.8716,-3.3335,10,1.2822,8.4614,-0.25635,2.8203,-18.7178,0.76904,-0.25635,-5.3848,0.25635,-9.4873,17.6924,
-2.0513,0,15.8975,9.2305,12.8203,0,6.1538,-10.2563,0,1.5386,-8.2051,-1.0259,-4.6152,19.4873,
-8.9746,-5.3848,6.4102,3.8462,4.3589,-3.3335,5.8975,-14.1025,1.7949,0.76904,-4.3589,-0.76904,-5.3848,26.9229,
-15.3845,-8.2053,4.1023,1.5383,2.051,-5.6409,1.0256,-22.0515,2.5642,1.0256,-4.6155,-1.0256,-8.2053,24.6155,
-13.8459,-4.6155,10.2566,6.1541,11.7947,-6.6667,4.1028,-17.4358,6.1541,3.5896,-4.6155,-6.6667,-3.5896,17.949,
-8.4617,-2.8206,4.8718,8.4612,13.0769,-7.4363,6.9231,-14.6155,3.8459,2.8206,-7.949,-7.4363,-5.3845,19.2307,
-0.25635,0.25635,-0.25635,11.0254,12.0513,-1.7949,8.4614,-16.667,1.2817,4.3589,-6.9233,-2.8208,-6.4106,27.9487,
-4.3586,1.282,-1.282,10.0002,15.1282,1.7952,2.8206,-17.1794,-3.8459,1.7952,-3.3333,-4.8718,-6.4099,22.8206,
-12.3079,-3.5901,1.0256,3.5896,13.8459,1.5383,2.5637,-12.8206,-1.5388,3.0769,-1.5388,-1.0256,-4.6155,15.3845,
-13.3335,-8.2051,2.564,-5.1284,7.6924,-4.1025,8.2051,-17.436,7.6924,5.1284,0.5127,-1.5386,-0.5127,19.4873,
-10.5127,-2.3076,3.3335,-4.3589,8.9741,-5.3848,5.8975,-21.2822,7.9487,2.3076,3.8462,-11.5386,-2.8208,22.8203,
-13.8462,-3.5898,2.0513,-2.0513,11.2822,-3.5898,3.5898,-19.4873,5.1284,3.0771,2.564,-9.231,-7.6924,18.4614,
-14.3594,-9.231,6.6665,-3.0771,14.3589,0,7.1792,-17.9487,6.1538,6.6665,-1.0259,0,-3.0771,20.5127,
-11.282,-8.718,10.2566,-4.1028,15.3845,-1.5383,8.718,-19.9998,7.6921,3.5896,0.51294,-3.5896,-0.51294,22.0515,
-13.3333,-9.2307,5.1282,-8.2048,5.1282,-7.6921,6.6667,-24.6152,8.718,6.1541,5.6414,-7.1794,-5.1282,19.4875,
-11.0259,-8.4619,1.7949,-6.4106,4.8716,-6.4106,4.8716,-23.8464,6.4102,12.0513,4.3589,-1.7949,-3.8462,16.6665,
-4.3589,-7.9487,0.76904,-1.7949,19.8716,0.76904,5.3848,-21.2822,1.7949,2.8203,-0.76904,-7.436,-1.7949,15.1284,
-3.0767,0,-0.5127,7.6924,30.7695,10.2568,6.1538,-16.9229,1.0259,-2.0513,0,-7.6919,-6.1538,22.5645,
-6.1538,3.5894,-5.1284,12.3076,22.564,11.2817,0,-18.9746,0,6.6665,-1.5386,-3.5898,-10.2563,25.6406,
-3.5896,0.51294,-6.6667,8.718,18.9744,9.2307,-0.51294,-21.0256,1.0256,8.718,-3.5896,-3.0769,-6.1536,22.0515,
-4.1025,-0.5127,-3.5898,4.6152,16.9233,7.1797,3.0771,-15.3848,1.5386,-0.5127,-4.1025,0.5127,-6.1538,26.6665,
-8.4619,-2.3076,-0.25635,1.7949,11.0254,-0.25635,8.4614,-13.0771,5.3843,3.333,-0.25635,0.25635,-7.436,28.4614,
-7.436,-4.3589,1.7949,-1.2822,15.6411,-2.8203,9.4873,-17.6924,8.9741,14.1025,-0.25635,0.25635,-3.8462,22.3076,
-10.7693,-4.1028,-1.0256,-5.1282,16.9231,1.0256,6.1536,-18.9744,6.1536,10.7688,-2.5642,4.615,-4.1028,21.0256,
-13.8459,-4.1028,-0.51294,-3.5896,9.7434,-0.51294,9.7434,-16.9231,8.2053,6.6667,0.51294,6.6667,-5.6409,22.5642,
-14.1023,-8.9744,1.282,-4.8718,2.8206,-8.9744,6.9231,-21.282,6.9231,10.5129,-1.282,2.8206,-5.3845,18.2053,
-11.2825,-11.2825,4.1023,-6.1541,5.6409,-8.2053,3.5896,-23.5901,6.1536,15.3845,-1.0256,1.0256,-1.0256,16.9231,
-13.3333,-9.7434,7.1794,-2.5642,11.282,-1.0256,5.1282,-18.9744,5.6409,9.7434,-2.5642,1.0256,-3.5896,15.3845,
-13.8459,-8.718,8.2053,0.51294,6.6667,-1.5383,5.6409,-17.4358,3.0769,6.6667,-3.5896,-0.51294,-8.718,17.949,
-9.4873,-9.4873,9.4873,-1.7949,3.8462,-6.4102,7.436,-20.769,6.4102,8.9746,1.7949,-2.3076,-4.3589,20.2563,
-7.1792,-6.1538,7.1797,-0.5127,11.7949,-4.6152,3.5898,-22.0513,2.564,4.6152,-1.0254,0.5127,-4.6152,17.9487,
-6.9231,-1.7947,0.25659,7.4358,12.0515,-1.7947,0.25659,-19.2307,-0.25659,5.3845,-5.8972,4.3591,-6.4104,19.2307,
-5.6409,-2.051,-3.5896,7.6921,5.1282,-1.5383,2.0515,-16.4104,3.5896,9.2307,-2.5642,1.5383,-5.1282,20.0002,
-5.1282,-3.0769,-5.1282,3.0769,6.1541,-1.0256,2.0515,-19.4871,2.5642,8.718,-4.615,1.0256,-6.6663,17.4363,
-3.8459,-2.3079,-1.282,1.282,10.5129,-1.282,5.8972,-19.2307,4.8718,12.5642,-2.3079,4.3591,-5.3845,19.7434,
-5.8975,-5.3843,-2.8203,0.25635,8.4619,-4.8716,2.8208,-20.2563,0.76953,6.4102,0.25635,-0.25635,-8.9741,14.6157,
-4.1025,-7.1792,-2.564,4.6152,10.7695,2.564,-0.5127,-20,0,1.5386,0,3.0771,-9.7437,15.3848,
-2.0513,-9.2305,0,0,7.6924,4.6157,-1.5381,-18.9741,3.0771,6.667,-1.5381,5.6411,-7.6919,21.0259,
-0.5127,-8.7178,8.7178,-8.2051,4.1025,-4.1025,1.5386,-17.9487,3.5898,5.1279,0.5127,-1.5386,-5.6411,19.4873,
1.2822,-9.4873,16.1538,-9.4873,9.4873,-6.9229,6.9229,-20.769,3.3335,-1.2822,3.8462,-6.4102,-4.3589,15.1284,
3.5898,-9.7437,11.7949,-5.1284,13.8462,-4.1025,1.5386,-20.5127,0.5127,0.5127,-0.5127,-5.6411,-8.7178,14.8716,
7.949,-4.8718,11.0256,1.282,13.5896,0.76929,-3.3333,-11.5383,-1.282,6.9231,-4.3591,-0.76929,-9.9998,17.1794,
3.8459,-8.4617,7.4358,0.76929,10.5129,-0.76929,-1.7947,-13.5896,-2.8206,6.9231,-3.8459,1.282,-8.9744,17.6921,
-1.282,-6.4104,1.7947,4.8718,12.0515,2.3079,-0.76929,-15.1282,-1.282,6.9231,-0.76929,0.76929,-7.9485,16.1541,
0.25635,-1.2822,-1.7949,7.4355,10.5127,1.2817,-0.25635,-15.1284,2.3076,5.8975,-0.76953,-2.3076,-7.9487,8.9741,
5.8977,-1.282,1.7952,1.282,8.4617,-3.3333,-1.282,-19.7434,1.282,3.8464,-5.3845,-6.9231,-9.9998,9.4875,
11.0259,-1.7949,8.9746,-0.25635,12.564,2.3076,-1.2822,-15.6411,0.25635,4.8716,-3.8462,-4.8716,-7.436,15.6411,
7.436,-6.9229,0.76953,-0.25635,6.4106,2.3076,-3.8462,-13.5894,-1.2817,1.2822,-0.76904,0.25635,-8.9741,8.9746,
6.1543,-6.1538,-5.6406,1.0259,7.6924,0,-4.6152,-14.8716,-1.0254,1.5386,0,2.5645,-10.769,10.7695,
9.231,-6.6665,0,-1.0259,17.436,3.0767,-2.564,-16.4102,0,3.5898,-1.0259,0.5127,-10.2563,16.4102,
7.6926,-6.1536,3.5901,-3.0769,13.8464,3.5901,-1.0256,-16.9231,-0.51294,2.0515,-2.051,0.51294,-10.7693,11.7952,
7.436,-3.8462,-0.25635,-3.333,5.3848,-0.76904,2.3076,-15.6411,2.8208,1.2822,-1.7949,0.25635,-9.4868,12.5645,
8.718,-5.1282,-1.0256,-4.615,9.2312,-2.5637,2.5642,-17.4358,3.0769,1.5388,1.0256,-5.6409,-8.7175,15.385,
7.6924,-4.6152,2.564,0,11.2822,-0.5127,-4.1025,-18.4614,-2.0513,0,1.5386,0,-9.7437,15.8975,
4.3589,-4.8716,1.2822,3.8462,-3.7178,-6.4102,-5.3848,-15.1279,-0.76904,1.7949,0.76904,7.9487,-11.0254,16.1538,
6.6665,-2.564,0.5127,4.1025,-6.1538,-13.3335,-1.0254,-9.2305,1.5386,5.1284,2.564,-0.5127,-9.7437,16.4102,
9.231,1.0259,-0.5127,5.1284,8.8462,-14.3589,0,-13.3335,-5.6411,0,0.5127,-10.769,-9.7437,10.7695,
8.718,0.51294,2.5642,5.6409,23.8462,-11.7952,4.6155,-17.4358,-4.6155,-0.51294,-1.0256,-5.6409,-7.1794,11.7947,
10.0002,-0.76929,6.4104,1.7947,16.6667,-9.4871,2.8206,-13.5896,-1.7947,0.76929,-1.282,-2.8206,-7.4358,13.5896,
13.5898,1.7949,9.4873,0.25635,19.2305,-12.0513,-1.7949,-11.0259,-1.2822,-0.25635,0.25635,-7.9487,-8.4614,10,
12.564,3.8462,10.5127,2.3076,20.769,-17.6924,-0.25635,-16.667,-1.7949,0.25635,-2.3076,-6.4102,-7.436,10,
8.9741,1.7949,12.564,3.8462,15.1279,-18.2051,2.3076,-18.7183,-4.8721,-1.7949,-3.8462,-3.3335,-11.5386,10.5127,
9.7437,0,16.4102,0,14.3589,-15.8975,3.5898,-15.3848,-1.0254,0.5127,-1.0254,-8.7178,-12.8203,10.2563,
9.7439,2.0515,12.3079,-1.0256,12.3079,-16.9231,0.51294,-16.4104,-0.51294,2.5642,-6.1536,-12.3079,-10.7693,10.2566,
9.9998,4.3586,8.4617,4.8718,12.051,-14.6155,0.76929,-16.6667,-3.8464,-0.76929,-7.949,-10.0002,-8.4617,9.9998,
11.0259,3.3335,6.9233,5.8975,13.5898,-9.4868,2.3076,-10.5127,-3.8462,-2.3076,-6.9229,-8.9741,-5.3843,8.9746,
11.0259,3.8462,5.3848,6.4102,11.0259,-11.0254,-2.3076,-8.4614,-2.3076,2.3076,-8.9741,-10,-7.9487,11.5386,
12.051,4.8718,3.8459,9.9998,9.4871,-12.0515,-4.8718,-16.1541,-2.8206,2.8206,-11.5388,-13.5901,-16.6667,11.5383,
21.0259,10.7695,8.2051,14.3589,21.0259,-4.6152,-0.51269,-14.8716,-4.6152,0.5127,-9.2305,-14.3589,-15.8975,9.7437,
24.8718,10.5129,10.0002,7.4358,26.9231,-7.4358,0.25659,-13.0769,-4.8718,-0.25659,-6.9231,-12.5642,-9.9998,7.4358,
19.2307,8.9744,5.3845,1.7952,17.6926,-12.051,-1.282,-15.1282,-2.3074,1.282,-4.8718,-11.5383,-6.4099,7.949,
13.0767,9.4873,0.25635,0.76904,7.9487,-14.1025,-1.7949,-18.2051,-0.25635,0.25635,-4.8721,-17.1797,-10.5127,8.9741,
12.5642,4.8718,-0.76929,-8.4617,3.8464,-20.7693,1.7952,-20.2561,3.8464,0.76929,-4.3586,-22.3074,-12.5642,8.9744,
12.8206,1.0256,0.51294,-13.8459,2.5642,-23.5896,-0.51294,-18.4617,3.0769,4.6155,-4.6155,-20.5129,-11.7947,10.7693,
12.8206,3.5896,1.0256,-8.2053,1.0256,-22.5642,-1.0256,-16.9231,3.0769,12.8206,-1.5383,-11.282,-10.7693,13.3333,
12.8206,1.5383,-1.5383,-5.6409,-1.5383,-21.0256,2.0515,-15.3845,6.1541,11.7947,3.0769,-1.5383,-10.2566,13.8464,
11.2822,0,-3.0767,-5.1279,4.1025,-16.4102,0,-13.3335,3.5898,4.6152,0,0.5127,-14.3589,13.3335,
10,0.76904,-0.25635,-1.7949,8.4614,-16.667,0.25635,-10,2.8203,10.5127,-0.25635,-3.3335,-11.5386,14.6152,
7.9487,1.7949,-0.25635,-0.25635,0.76904,-20.2563,-0.76904,-7.436,0.25635,10.5127,0.25635,-6.4102,-9.4873,13.5898,
10.2563,5.1279,0.5127,1.0254,0,-12.3076,0,-6.1538,-0.5127,0,-1.5386,-3.5898,-11.7949,11.7949,
7.6926,5.1282,5.1282,3.5896,3.0769,-6.6667,-0.51294,-9.7434,0.51294,-6.6667,-2.5642,-3.0769,-14.3586,9.2307,
4.6155,9.7434,8.2053,10.7693,5.6409,-6.1541,-0.51294,-8.718,-1.5383,-0.51294,0.51294,-1.5383,-12.8206,12.8206,
0.25635,10,5.8975,6.9233,4.3589,-7.4355,3.8462,-7.4355,-4.8716,-0.25635,-0.76904,-5.8975,-11.5381,13.5898,
-1.0254,11.2822,3.0771,2.0513,9.231,-8.2051,9.231,-5.6406,0,-3.0767,0,-4.6152,-9.2305,13.3335,
-1.7949,14.1025,0.25635,2.3076,11.5386,-15.6411,4.8716,-7.436,1.2822,-2.8203,-0.25635,-1.2822,-10,10,
-5.1282,12.8206,6.1536,5.1282,3.0769,-20.0002,4.1023,-10.7693,1.0256,-1.0256,-3.5901,-9.7439,-8.718,9.2307,
-10,15.6406,14.6152,13.5894,-2.8208,-14.6157,10.5127,-6.4106,4.8716,2.3076,-2.3076,-12.5645,-5.3848,17.1792,
-17.6924,13.0767,6.9229,11.0254,-13.0771,-17.1797,6.4102,-5.3848,4.8716,-1.7949,1.7949,-6.9233,-6.9233,15.6411,
-18.4617,10.2561,-0.51294,5.6409,-16.9231,-23.5896,0.51294,-4.1028,5.1282,1.0256,2.051,-3.5896,-8.718,10.2561,
-18.7178,9.4873,3.8462,5.3848,-8.9741,-19.7437,1.7949,-1.7949,4.3589,7.436,-5.3843,-4.3589,-7.9487,16.1538,
-16.6667,6.9231,8.4617,7.4358,-1.282,-11.5383,3.8459,-3.8459,1.282,3.8459,-8.9744,-4.8718,-9.9998,19.2307,
-5.1282,12.3074,12.8206,14.3586,6.6663,-6.6667,1.0256,-4.6155,-1.5388,1.0256,-6.1541,-1.0256,-12.3079,17.4358,
-5.1279,11.2822,12.8208,10.7695,8.2056,-9.7432,0,-6.6665,-3.0767,5.1284,-7.1792,0,-11.2817,16.9233,
-13.8462,5.1279,7.1792,0,4.6152,-13.8462,4.1025,-7.6924,-2.5645,8.2051,-7.6924,0,-9.7437,14.8716,
-18.718,0.76929,1.7952,-6.4099,3.8464,-14.6155,2.8206,-6.4099,-0.76929,2.8206,-6.9231,2.8206,-12.5637,10.0002,
-18.2051,2.3076,-0.76904,-7.9487,4.3589,-16.1538,5.8975,-4.3589,4.8716,2.3076,-5.8975,0.76904,-8.9741,12.0513,
-7.1797,12.3076,2.0513,-5.6411,3.5898,-16.4102,12.3076,-2.0513,7.6924,6.6665,-6.1538,-5.6411,-2.0513,19.4873,
1.2822,13.0767,11.0254,-2.8208,-2.8208,-19.7437,11.5386,-1.2822,8.4614,6.9229,-3.3335,-5.8975,-1.7949,20.769,
-7.6926,4.615,11.7947,1.0256,-13.3337,-23.5901,7.1794,-1.5388,7.1794,7.6921,-1.0256,-6.6667,-5.1287,16.9231,
-14.8721,3.0767,2.0513,4.6152,-18.4619,-17.436,3.0767,-2.0513,4.1025,4.6152,-6.667,-13.3335,-9.7437,12.8203,
-6.1536,6.6667,1.0256,5.6414,-16.4099,-8.718,4.6155,-1.0256,8.2053,4.6155,-6.1536,-8.2048,-7.6921,14.3591,
-2.564,6.1538,4.6152,5.1284,-17.436,-11.7949,2.564,-3.0767,5.1284,2.564,-5.1279,-3.0767,-10.769,14.8721,
-2.5645,10.2563,10.2563,9.2305,-11.2822,-9.231,5.1279,-2.0513,2.0513,5.1279,-2.5645,-8.7183,-13.3335,13.333,
-2.564,13.3335,11.7949,9.7437,-9.2305,-5.6406,5.6411,-2.0513,2.0513,8.7183,-4.1025,-10.769,-12.8203,12.3081,
-4.6155,11.7952,7.1794,10.7693,-16.4104,-5.6409,0.51294,0.51294,-0.51294,6.1541,-11.7947,-1.5383,-11.7947,13.8464,
-3.3333,7.4358,0.76929,8.4617,-23.8459,-7.4358,2.3079,1.7952,-0.76929,4.3591,-10.5129,-1.282,-8.4617,16.6667,
1.5383,8.2048,-0.51294,0.51294,-22.5642,-10.7693,4.1023,-4.1028,1.0256,6.6667,-5.1282,-3.0769,-7.6926,16.4104,
-0.25635,13.5898,0.76904,1.2817,-18.2051,-10.5132,0.25635,-6.9233,1.2817,6.9229,-5.8975,-1.7949,-5.3848,14.1025,
-0.76904,15.6411,1.2822,7.9487,-18.2051,-6.4102,1.2822,-1.2822,3.8462,0.76904,-8.4614,-6.9229,-3.3335,13.5898,
0,9.7432,1.0254,1.5381,-22.5645,-10.7695,2.564,0,1.5381,-5.6411,-9.7437,-15.8975,-10.7695,11.2817,
0.25659,5.3845,6.4104,-6.4104,-24.8718,-16.6667,5.8972,-0.25659,6.9231,3.3333,-4.3591,-15.1282,-7.949,15.6409,
-2.051,6.6667,7.1794,-7.1794,-24.1025,-19.4871,6.6667,0.51294,11.282,11.7952,-2.051,-9.2307,-0.51294,19.4871,
-6.667,8.2051,2.0513,-8.2051,-22.564,-21.0259,5.1279,1.5386,8.7178,13.8462,-2.564,-4.1025,-1.5386,16.9229,
-10.2566,8.718,-0.51294,-3.0769,-20.5129,-16.9231,5.1282,2.5642,8.2048,15.3845,-4.1028,0.51294,-4.6155,14.3591,
-12.0515,7.9485,-1.282,2.8206,-17.6926,-14.1028,1.7947,-0.76929,4.3586,8.9744,-7.949,0.76929,-5.8977,13.5896,
-10.2563,5.1279,-0.5127,0.5127,-18.4614,-16.9233,4.1025,-1.5386,6.6665,7.1792,-3.5898,3.0767,-2.564,15.8975,
-14.6157,2.8203,-0.76953,-0.25635,-23.8462,-19.7437,3.333,0.25635,6.9229,11.0254,-2.8208,3.333,-4.8721,15.1279,
-16.9231,6.6667,0.51294,5.6409,-27.1794,-17.9485,-2.051,-0.51294,2.5642,8.718,-7.6921,0.51294,-3.5896,14.8718,
-13.5898,6.9233,2.8208,5.8975,-18.2051,-14.6152,0.25635,-0.25635,4.3589,5.8975,-7.436,-3.333,-0.76904,17.1797,
-14.8716,4.6152,2.564,1.0259,-11.2822,-13.8462,0.5127,-0.51269,5.6411,6.1538,-8.2051,-6.1538,-4.6152,15.8975,
-18.4617,2.5637,1.0256,1.5383,-17.4363,-15.385,1.0256,-1.0256,5.1282,6.1536,-7.1799,-9.7439,-4.1028,14.3586,
-14.8716,6.1538,1.0259,8.2051,-18.9741,-14.8716,0.51318,0,2.0513,0,-5.1279,-15.3843,-3.5894,13.8462,
-4.8718,18.2053,9.4871,17.1794,-6.4104,-5.8972,1.282,2.8206,1.7952,-1.282,-5.3845,-12.5642,-6.9231,17.1794,
-5.1282,18.4617,13.8464,15.8977,-3.0769,-1.5383,3.5896,-1.5383,1.5383,2.0515,-8.718,-8.2053,-8.718,16.4104,
-6.6667,14.3591,15.3845,14.8718,-0.51294,-2.051,2.0515,-1.0256,0.51294,6.1541,-5.1282,-4.1023,-5.6409,17.4358,
-6.4099,12.0515,10.5129,15.6414,-0.76929,-6.4099,-3.8459,0.76929,0.76929,6.9231,-4.3586,-7.9485,-7.9485,17.1794,
-9.7434,13.8459,4.1023,15.8972,-5.6409,-5.1282,-2.5642,2.5642,6.1536,8.2048,-7.1794,-5.6409,-6.6667,17.9485,
-14.3591,12.3074,-5.1282,14.8718,-10.7693,-4.1028,-1.0256,1.0256,4.615,6.6663,-7.6926,3.0769,-7.6926,15.3845,
-5.8972,13.0769,-2.3074,18.2053,-4.8718,-4.8718,0.76929,-0.76929,2.3079,6.4104,-4.3586,4.8718,-10.5129,14.6155,
-0.25635,16.1538,8.9746,20.7695,-4.8716,-7.4355,-0.76904,-0.25635,0.25635,5.3848,-10,0.76953,-11.5381,15.1284,
-4.8716,14.1025,13.5898,16.1538,-19.8716,-15.1284,-1.7949,2.8203,1.7949,8.9741,-14.1025,-3.3335,-9.4873,14.6152,
-5.3843,12.5645,11.0259,8.4614,-24.8716,-19.2305,-1.7949,1.7949,2.8208,10.5127,-10.5127,-10,-7.9487,12.5645,
0.76929,14.6155,8.9744,8.4612,-9.8716,-8.4617,-1.282,-0.76929,2.3074,6.4099,-6.9231,-8.4617,-8.4617,13.5896,
-1.5383,7.1794,3.0769,8.2053,-5.6409,-3.0769,1.5383,-3.0769,3.5896,3.0769,-7.1794,-3.5896,-9.2307,13.3333,
-7.1794,5.1282,-1.5383,7.1794,-13.3333,-5.6414,4.1023,1.5383,4.6155,3.5896,-3.0769,-4.1028,-5.1282,15.8972,
-9.7437,7.6924,1.5386,5.6411,-16.4102,-9.231,2.564,0.5127,0.5127,-0.51269,-2.0513,-9.231,-2.0513,14.8716,
-1.0254,10.769,13.8462,13.8462,-7.1792,-3.0767,4.1025,-0.5127,0.5127,2.0513,-4.1025,-2.0513,-4.1025,13.3335,
-0.76929,10.0002,15.1282,18.2053,0.25659,-0.25659,-0.76929,0.25659,-4.8718,-0.25659,-9.4871,0.76929,-14.6155,11.0256,
-6.4102,4.8716,13.0767,18.2051,0.25635,-0.25635,3.333,4.8716,-0.76953,-0.76953,-3.3335,-1.2822,-10.5127,15.6411,
-15.6411,-0.25635,3.333,13.5898,-14.1025,-3.3335,3.8462,2.8203,0.25635,3.333,-2.8208,-2.3076,-7.436,17.6924,
-14.6157,2.8203,0.25635,11.5386,-21.7949,-3.3335,-0.25635,5.8975,-1.7949,6.9229,-5.3848,0.25635,-6.9233,21.7949,
-6.9231,1.7952,5.8977,11.0256,-17.6921,-6.4099,-1.7947,7.4358,-0.76929,4.3591,-5.3845,0.76929,-5.8972,23.3333,
-2.0513,0,10.769,13.8462,-12.8203,-8.2051,1.5386,3.0771,0,3.0771,-5.6411,-1.0254,-7.1792,20,
-3.0769,2.5642,9.7434,11.282,-11.7947,-6.6667,4.6155,-1.0256,1.0256,5.6409,-6.1541,-1.5383,-6.6667,13.3333,
-3.0767,3.0771,6.1538,5.1284,-8.7178,-8.7178,0,2.564,0,6.1538,-6.1538,0,-5.6411,16.4102,
-5.3845,-4.3591,2.8206,0.76929,-4.3591,-6.9231,-0.25659,8.4617,3.8459,5.8972,-1.7947,0.25659,-3.8459,26.9231,
-14.6152,-9.4873,0.25635,-4.3589,-7.9487,-7.436,4.3589,4.8716,10,5.8975,5.3848,-0.25635,-0.25635,24.8716,
-15.6411,-8.4614,0.76904,-3.3335,-12.564,-13.5898,1.7949,2.3076,5.8975,4.3589,3.8462,-0.76904,-1.2822,17.6924,
-5.3845,-10.5129,5.3845,4.3591,-10.0002,-12.5642,-0.25659,6.4104,4.8718,9.4871,-0.76929,0.25659,-0.76929,20.2566,
-1.0256,-8.718,11.282,4.615,-12.3079,-7.1794,-1.5388,4.1023,6.6663,7.1794,-2.5642,-2.0515,1.0256,22.051,
-3.3335,-2.3076,8.4614,10,-11.5386,-4.8716,-1.7949,2.8203,3.3335,3.3335,-5.8975,1.7949,-3.3335,19.231,
-4.8716,-4.8716,-2.3076,17.6924,-6.9229,-0.25635,0.25635,4.8721,2.8208,9.4873,-3.333,7.9487,-5.3843,20.7695,
-5.6411,-8.2051,0,13.3335,-7.6924,0.5127,-2.564,2.0513,1.0259,8.2051,0,0,-2.564,21.5386,
0.51294,-3.5896,12.8206,9.2307,-6.1541,-4.1028,-0.51294,3.0769,1.5383,0.51294,-2.5642,-4.1028,-2.0515,19.9998,
2.3076,-3.8462,7.4355,5.3843,-9.4873,-2.8208,-0.25635,2.8203,0.25635,-1.2822,-8.9746,0.76904,-8.4614,16.1538,
-2.0513,-3.0767,0.51269,3.0771,-15.8975,0.51269,-2.564,3.5898,3.5898,8.2051,-5.6411,-0.5127,-8.2051,12.8208,
0,-3.0771,2.564,3.5894,-15.8975,-3.0771,0,5.6406,6.1538,9.7432,-0.51318,-7.1797,-7.1797,12.8203,
9.2307,-3.5896,-1.0256,4.6155,-14.8718,-3.5896,-1.0256,2.5642,1.0256,4.1028,-6.6667,2.5642,-8.718,19.4871,
10.2563,-2.564,-3.5898,2.564,-13.3335,1.0254,-2.0513,-0.5127,0.5127,10.769,-6.6665,8.7178,-4.1025,22.564,
-0.25659,-2.3079,-1.282,0.76929,-10.5129,1.282,-2.8206,2.3079,1.7947,13.5896,-1.7947,0.25659,-3.8459,16.6667,
2.0513,0.5127,-1.0254,-1.0254,-8.7178,1.5386,-3.5898,5.6411,-0.5127,5.6411,-1.5386,4.1025,-7.1792,17.436,
12.5645,-0.25635,-3.333,-4.3589,-8.4614,-0.25635,0.25635,4.3589,2.3076,5.3848,-2.8203,10,-2.3076,22.8208,
7.1792,-5.1284,-5.1284,-5.1284,-9.7437,-5.1284,0.5127,4.1025,2.0513,7.6924,-4.1025,2.0513,-0.5127,17.9487,
-1.0259,-5.6411,-4.6152,-5.6411,-15.3848,-5.1284,1.0254,3.5898,0.5127,4.1025,0.5127,3.5898,-0.51269,12.8203,
1.282,-2.3074,-2.3074,-4.3586,-19.7434,-7.4358,-1.7947,0.76929,3.8464,3.3333,3.8464,9.4871,-0.76929,13.0769,
4.1025,0,-4.6152,1.5386,-18.4614,-11.7949,-9.7432,2.0513,2.5645,0,0,5.1284,-5.6406,15.3848,
5.3843,0.76904,-11.0259,2.8203,-14.6157,-4.8721,-3.3335,7.4355,-0.25635,0.25635,-1.2822,3.333,-2.3076,21.7949,
6.4102,0.25635,-14.6152,-2.3076,-11.5386,-0.76904,1.7949,7.436,-3.333,1.2822,-4.8716,-0.25635,0.76953,17.6924,
11.5386,3.3335,-5.8975,-0.76904,-3.333,-2.8203,-0.25635,6.4102,0.76953,1.2822,-4.3589,-1.7949,0.25635,9.4873,
15.6411,3.8462,-0.25635,-2.3076,-8.9746,-4.8721,-0.76953,7.4355,4.3589,0.76904,-4.3589,0.25635,-1.2822,12.564,
9.9998,2.8206,-3.3333,-6.4104,-15.1282,-2.8206,2.3074,6.4099,-0.76929,3.3333,-6.4104,0.76929,-2.3079,15.1282,
1.2822,0.76953,-1.2817,-6.4102,-10,-7.9487,6.9233,1.2822,0.25635,4.8721,-2.3076,-0.25635,-0.76904,13.0771,
-1.0259,-3.0771,0,-7.1797,-17.9487,-17.9487,4.1025,2.0513,3.5894,0,0,3.5894,-3.0771,16.4102,
1.7952,-4.3591,-5.8972,-11.5383,-21.7947,-13.0769,0.76929,8.9744,5.3845,2.3079,-0.76929,10.5129,-2.3074,20.7693,
0.51294,-5.6409,-14.3591,-15.8972,-6.7947,-2.5642,3.0769,4.6155,2.0515,3.5896,-2.5642,7.1794,-0.51294,18.9744,
2.0513,-0.51269,-13.8462,-10.769,8.2053,0.5127,3.5898,2.0513,-2.0513,2.0513,-6.6665,-1.0254,-1.0254,18.9746,
1.5383,1.0256,-6.1541,-4.6155,-0.51294,-2.5642,2.5642,6.6667,0.51294,3.0769,-7.1794,-2.5642,-2.5642,16.4104,
2.0513,0,3.0771,0.51318,-4.6152,-5.6406,0,6.1538,0,3.0771,-5.6406,-1.0254,-5.6406,12.8208,
10,0.25635,6.9229,0.25635,6.9229,-6.9229,-1.2822,0.25635,-3.8462,-0.25635,-5.3848,-3.8462,-8.9741,16.6665,
12.8206,-1.0256,5.6409,-3.0769,4.6155,-7.6921,3.0769,-0.51294,-1.5383,1.0256,0.51294,-2.5642,-6.6667,19.4871,
4.1025,-2.564,0,-4.1025,-5.1279,-7.6924,3.5898,0,-0.51269,1.5386,1.0259,0,-8.7178,12.3076,
4.1028,0.51294,-0.51294,-0.51294,-2.5642,-6.6667,5.1282,1.0256,3.5896,3.0769,-0.51294,-0.51294,-8.718,13.8459,
7.1797,0,0,-6.1538,5.1284,-8.7178,1.5386,-1.0254,2.5645,5.1284,0,-1.5381,-7.6924,16.9233,
3.8464,-4.8718,0.76929,-12.5642,1.7952,-11.0256,-3.3333,-2.3074,1.282,6.4104,2.8206,-0.76929,-8.4617,16.6667,
3.3335,-6.9233,1.2822,-12.0513,-4.3589,-10.5127,0.25635,-1.2822,6.4102,4.8716,2.8203,-0.25635,-7.436,16.6665,
6.9229,-3.8462,-2.8203,-6.9229,4.3589,-7.436,0.25635,-0.25635,2.8203,0.76904,-4.3589,1.7949,-11.0259,16.6665,
10.5127,-0.76904,-5.3848,-1.7949,13.0771,-3.3335,-0.25635,3.8462,0.25635,6.9233,-3.3335,10,-15.6411,19.231,
7.9487,-2.3076,-10,-4.8716,5.3848,-8.4614,-0.25635,1.2822,-0.76904,5.3848,0.25635,7.436,-17.6924,17.6924,
4.6152,-1.0254,-10.769,-3.0767,2.564,-10.2563,2.564,-0.5127,2.0513,-0.5127,1.5386,0.5127,-14.3589,15.3848,
-2.3076,-4.3589,-6.9229,1.2822,-0.25635,-8.4614,2.3076,0.76953,1.7949,0.76953,0.25635,-3.8462,-15.1279,11.0259,
-5.3848,-1.2822,-0.25635,2.8203,-4.3589,-6.9229,-0.25635,1.2822,0.76904,3.8462,0.76904,0.25635,-17.6924,12.564,
-2.564,0,3.0767,-1.0259,-5.6411,-13.8462,2.564,-3.0771,6.6665,3.0767,2.0513,0,-13.3335,15.3848,
0.25659,-2.8206,0.25659,-0.25659,-4.8718,-18.2053,7.4358,-3.3333,10.5129,3.3333,3.8459,-5.3845,-8.9744,13.0769,
-3.3333,-1.7947,-0.76929,2.8206,-2.8206,-13.5896,2.8206,1.7952,0.76929,0.76929,4.3591,-0.76929,-12.051,13.0769,
-5.8975,1.2822,7.436,2.3076,-0.25635,-8.4614,-3.8462,2.8208,-5.3843,0.25635,-0.25635,4.3589,-14.1025,15.1284,
-4.6155,2.5642,5.6409,4.6155,-4.6155,-7.1794,-3.5896,2.051,-1.5383,1.5383,-5.1282,2.5642,-16.4104,11.7947,
-4.3589,0.25635,-2.8208,7.4355,-11.0259,-6.4102,-0.25635,4.3589,0.76904,1.2817,-2.8208,6.4102,-16.667,14.6152,
-5.1279,2.5645,3.0771,11.2822,-6.1538,-1.0254,0,10.2568,-0.5127,0,-0.5127,10.2568,-14.8716,22.0513,
-6.4102,5.8975,12.0513,16.1538,-1.2822,-1.2822,-0.76904,10.5127,-1.2822,0.76904,-6.9229,11.0259,-15.1284,20.2563,
-8.2048,-0.51294,7.1794,13.8464,-9.2307,-11.7947,0.51294,3.0769,-1.0256,2.0515,-5.6409,8.2053,-16.4104,12.3079,
-3.5898,1.5386,6.6665,14.3589,-9.231,-4.1025,0,5.1279,-4.1025,0,-2.564,0.5127,-17.436,11.7949,
-0.25659,9.4871,11.5383,15.1282,-4.8718,10.8975,0.25659,10.5129,-5.3845,-3.8459,-6.9231,-2.3079,-17.6921,14.1028,
-6.6665,6.1538,8.2051,8.7178,-13.3335,9.7437,1.5386,7.6924,-4.1025,-2.564,-7.6924,-1.5386,-18.4614,8.7178,
-8.2051,1.5386,7.1797,12.8208,-15.3848,1.0259,0.51269,4.1025,-4.1025,-0.5127,-2.0513,-2.0513,-18.9741,10.7695,
-4.3586,0.76929,11.0256,19.7439,-10.5125,4.3591,1.7952,4.3591,-4.3586,-0.76929,-1.7947,-2.3074,-16.1536,15.1282,
-3.3333,6.4104,12.5642,17.6926,-5.8972,11.0256,0.76929,9.4875,-3.3333,-2.8206,-7.4358,-0.76929,-16.6667,12.5642,
-3.3335,12.0513,11.0254,14.6152,0.25635,12.0513,-0.25635,10.5127,-2.3076,-4.3589,-6.4102,-2.3076,-22.8208,14.6152,
-5.1279,8.7183,8.7183,14.8721,-0.5127,8.2051,0.51269,7.6924,-2.564,-3.0767,-2.564,-7.1792,-24.6152,19.4873,
-7.6919,9.231,8.2056,17.436,-3.5894,11.7949,0,7.6924,-2.564,0,-2.564,-2.564,-22.0513,17.436,
-11.5383,9.4871,4.8718,14.1028,-6.9231,16.1541,-2.3079,5.3845,-2.3079,-2.8206,-4.8718,2.3079,-24.8718,11.5383,
-11.5383,7.4358,3.3333,11.5383,-14.6155,11.5383,-4.8718,4.3591,-3.3333,-6.9231,-5.3845,4.3591,-29.4871,15.6409,
-7.1794,4.1028,1.5383,10.2566,-18.4617,10.2566,-3.5896,7.6926,-1.5383,-2.051,-3.0769,2.5642,-27.6921,21.5383,
-11.7947,-1.0256,-4.1028,2.5642,-13.8459,14.8718,-2.0515,7.1794,0.51294,2.5642,-0.51294,4.1023,-23.5896,18.4617,
-16.4102,-0.5127,-4.1025,-6.1538,-7.6924,14.8716,-0.5127,6.1538,0.5127,3.5898,3.5898,6.1538,-22.0513,20,
-11.7947,-0.51294,-4.1023,-9.7434,-12.3079,6.1541,0.51294,4.6155,3.0769,0.51294,5.1282,-6.1536,-22.051,17.4358,
-6.1538,1.5381,-7.1797,-2.5645,-15.3848,5.1279,0,5.6406,5.6406,0.5127,0,-8.7183,-24.6157,14.8716,
-8.9741,-0.25635,-3.8462,2.3076,-13.0767,6.9233,-3.8462,5.8975,0.25635,4.3589,-6.9229,0.25635,-29.4868,12.5645,
-10.5129,-0.76929,5.8977,0.76929,-12.051,1.282,-1.282,3.3333,-0.76929,4.3591,-3.3333,0.76929,-28.4617,10.0002,
-14.6155,2.3074,2.8206,-2.3079,-15.1282,1.282,1.282,-2.3079,-1.282,1.7947,-2.3079,2.3074,-25.3845,14.1023,
-17.1792,4.8721,-3.333,-3.8462,-16.6665,7.436,2.8208,-2.8203,1.7949,11.5386,-1.7949,11.5386,-20.769,20.7695,
-12.3074,4.1028,-3.0769,1.0256,-15.8972,2.0515,-1.5383,-2.051,2.0515,13.3337,-1.0256,7.1794,-21.5383,16.4104,
-8.2051,6.6665,-2.564,7.6924,-13.3335,0.5127,-0.5127,-2.564,-1.0259,4.6152,1.0254,2.0513,-24.1025,11.7949,
-17.1794,4.3591,-8.9744,-0.76929,-15.1282,3.3333,4.3591,-5.3845,-1.7947,0.76929,0.76929,1.7952,-25.8972,14.1028,
-15.8977,5.1282,-8.2053,-5.6409,-15.8977,3.0769,2.5642,-3.0769,0.51294,5.1282,-0.51294,4.6155,-22.0515,17.9485,
-4.6152,6.6665,-4.6152,1.5386,-20.5127,-2.0513,0,-2.0513,0,3.0771,0.5127,4.6152,-18.9741,15.3848,
-6.1538,4.6152,-3.5898,0,-19.4873,0,6.1538,-3.5898,2.564,-2.0513,1.0254,2.564,-22.0513,16.4102,
-15.6411,4.8716,-4.8716,-8.9746,-13.5898,3.3335,6.4102,-3.8462,5.3848,-0.76904,2.3076,0.76904,-21.7949,17.1797,
-14.3591,4.615,-7.6926,-9.2312,-19.4875,-1.0256,2.051,-4.6155,6.1536,3.5896,4.615,1.0256,-15.8977,16.4099,
-9.7437,8.7178,-5.1284,-3.0771,-22.564,-1.5386,4.1025,-1.5386,3.5898,2.564,1.5386,3.0767,-16.9233,18.4614,
-15.1282,5.8972,1.282,-2.8206,-23.3335,-1.7947,6.9231,0.76929,3.8459,1.7947,-0.76929,-1.282,-20.2566,17.1794,
-15.8972,0.51294,4.6155,-0.51294,-25.1282,-2.0515,8.2053,-0.51294,9.2307,9.7434,3.5896,-0.51294,-16.9231,17.4358,
-13.0769,4.3591,-0.76929,0.76929,-22.8206,-3.3333,4.3591,-2.8206,2.8206,10.0002,-2.3074,1.7952,-16.1536,17.6926,
-10.5129,7.9485,-0.76929,1.7947,-18.718,0.25659,5.8972,-0.76929,-0.25659,5.3845,-4.3591,4.8718,-15.1282,18.2053,
-11.7952,4.1023,-1.0256,4.1023,-19.4871,4.1023,3.5896,-3.0769,-1.0256,1.0256,-3.0769,2.051,-18.4617,15.8972,
-13.0769,3.3333,-1.282,6.9231,-15.6409,2.8206,1.282,-4.3591,3.3333,2.8206,-3.3333,-3.3333,-16.6667,14.6155,
-15.6409,5.3845,-0.76929,4.8718,-12.0515,0.76929,1.7947,-3.3333,3.8459,4.3591,-4.3591,-3.3333,-15.6409,15.1282,
-13.5896,7.4358,-0.25659,7.4358,-11.5383,7.4358,1.282,-3.8459,-2.8206,0.76929,-4.8718,0.25659,-22.3079,13.0769,
-9.231,5.6411,0.5127,8.7178,-12.3076,8.7178,5.1279,-5.1284,-1.0259,3.5898,-3.0771,-0.5127,-22.0513,13.3335,
-8.718,8.2053,-1.0256,2.5642,-15.8972,3.0769,5.1282,-3.5896,1.0256,7.1794,-2.051,-2.051,-16.9231,15.8977,
-5.1284,10.769,1.0254,0,-13.8462,5.6406,4.1025,-1.0259,0,3.5894,-1.0259,-2.0513,-17.9487,14.8716,
0.25635,10,-2.8203,2.8203,-5.8975,10.5127,4.8716,-3.3335,-0.25635,1.2822,-3.3335,-1.7949,-21.2822,11.5386,
-6.6665,10.2563,-11.7949,1.5386,-9.7437,5.6411,1.5386,-4.1025,-1.5386,6.6665,-7.1792,2.0513,-19.4873,13.8462,
-14.6155,8.4617,-10.5129,-0.25659,-19.7434,0.25659,4.8718,-1.7947,0.76929,8.9744,-3.3333,5.3845,-14.6155,17.6921,
-14.1025,4.8716,-0.25635,-0.25635,-19.231,0.25635,8.4614,-2.8203,4.3589,2.3076,-1.2822,4.8716,-15.6411,15.6411,
-13.8459,2.5642,5.1282,-3.0769,-16.4099,-1.0256,4.1028,-4.1023,3.0769,2.0515,-1.0256,1.0256,-16.9231,15.8977,
-12.0515,6.4104,1.282,-2.8206,-14.6155,-1.7947,3.3333,-0.25659,0.25659,3.8459,1.7947,-3.8459,-14.6155,17.1794,
-4.8718,11.0256,0.76929,4.3591,-14.1023,-0.76929,5.3845,0.76929,-1.282,-2.3074,4.3591,-3.3333,-15.6409,15.1282,
-3.5896,4.6155,1.0256,6.6667,-18.9744,1.0256,2.051,-7.1794,-1.0256,-4.1028,1.0256,-4.6155,-21.0256,10.2566,
-2.0513,4.1025,1.5386,2.0513,-19.4873,8.7178,0.5127,-4.6152,-0.5127,4.6152,-0.5127,-2.0513,-18.9746,12.3076,
-1.5386,9.7437,-0.51269,-2.0513,-23.5898,9.231,2.0513,0.5127,-4.6152,6.6665,-0.51269,2.0513,-15.8975,15.3848,
-1.7949,8.4614,-1.7949,0.76904,-29.4873,3.3335,5.3848,-0.76904,-4.8716,1.2822,-1.7949,1.2822,-16.1538,15.1284,
0.76929,8.4617,0.25659,6.9231,-25.8972,5.3845,5.3845,-0.76929,-4.8718,-0.25659,-3.8459,-0.25659,-17.1794,14.1028,
0.25635,10.5127,-2.3076,8.4614,-20.2563,9.4868,2.8203,-1.7949,-6.9233,-0.25635,-3.8462,5.3843,-18.2051,11.5386,
0.76929,13.0769,-1.7952,9.4871,-16.1541,11.0256,2.8206,-0.76929,-3.3333,-0.76929,-2.8206,11.0256,-14.1028,12.5642,
8.2051,10.769,-0.5127,3.5898,-15.3848,11.7949,0,-0.5127,-5.1284,0,-4.1025,4.1025,-15.3848,13.3335,
9.9998,7.4358,-0.76929,-9.4875,-18.2053,7.4358,2.8206,-3.8464,-5.8977,0.76929,1.282,-4.8718,-13.0769,12.051,
1.7949,9.4873,-0.25635,-8.4614,-17.6924,2.8203,7.436,-3.8462,-3.3335,0.25635,7.436,-5.8975,-7.436,14.1025,
-0.25659,5.8972,0.25659,1.7947,-19.7434,1.7947,2.8206,-4.3591,-3.8459,-1.7947,2.8206,-7.949,-10.5129,12.5642,
9.4873,8.9746,7.436,13.5898,-19.7437,12.5645,-1.7949,-3.8462,-4.3589,-0.25635,0.25635,-4.3589,-14.6152,10.5132,
12.5642,16.1541,14.1028,18.2053,-13.5896,19.2307,-0.25659,-2.3079,-3.3333,-2.3079,0.25659,-0.76929,-16.6667,8.4617,
6.1536,8.718,8.2053,8.718,-17.949,8.2053,2.5642,-5.1282,-2.5642,-3.0769,-5.1282,-6.6667,-17.949,7.6921,
5.6409,2.5642,1.0256,3.5896,-26.6667,4.1028,-1.0256,-6.1536,-4.6155,1.0256,-9.7434,-8.718,-19.9998,9.7439,
9.2307,6.6667,1.0256,8.718,-23.0769,10.7693,-2.051,-2.051,-1.0256,3.0769,-4.615,-2.051,-16.9231,12.3079,
8.9744,7.4358,-1.282,8.4617,-18.718,5.3845,-1.7947,-3.8459,-0.25659,1.7947,-0.25659,0.25659,-14.6155,11.0256,
15.1279,9.4868,-0.25635,11.0254,-10.5132,4.3589,-1.2822,-4.8721,-0.76953,3.8462,0.25635,-0.76953,-15.1284,12.564,
13.333,6.1538,0,9.7432,-9.231,6.6665,-0.51318,-4.6157,0,4.1025,-2.0513,-1.0259,-12.8208,12.3076,
6.1541,3.0769,-1.5383,2.5642,-15.8972,3.0769,-1.5383,-3.0769,-2.5642,4.1028,-3.0769,1.5383,-11.282,11.282,
9.7432,3.5894,-1.0259,-3.0771,-14.8721,0,0,-2.0513,0,12.3076,0.5127,0,-13.8462,13.333,
14.8718,1.5383,-0.51294,-6.1536,-12.8206,0.51294,2.0515,-2.5642,1.5383,13.3333,-0.51294,-2.051,-14.8718,13.3333,
14.3591,1.5383,0.51294,-3.5896,-12.3079,8.2048,-1.5383,-0.51294,-2.5642,2.5642,-6.1541,3.5896,-11.282,14.3591,
11.7947,5.1282,2.5642,0.51294,-11.282,9.2307,-2.5642,-2.051,-3.0769,-0.51294,-1.5383,1.5383,-10.2566,14.3591,
8.718,5.6409,1.0256,1.5383,-17.9485,-3.0769,-1.0256,-6.1536,-1.5383,1.5383,3.5896,-5.6409,-16.4104,9.7439,
10.0002,5.3845,-0.25659,5.3845,-24.8718,-6.9231,-0.25659,-5.3845,-0.25659,0.25659,1.7947,3.3333,-19.2307,8.4617,
14.6152,7.4355,0.25635,10,-19.7437,4.3589,-1.2822,-3.3335,-0.25635,-0.25635,-1.7949,9.4868,-20.2563,11.0254,
14.8718,10.7693,-2.5642,10.7693,-14.3591,6.1536,-1.0256,-3.5896,-5.1282,1.0256,-5.1282,2.5642,-21.5383,11.7947,
15.8975,10.2563,0,12.3076,-15.3848,0,4.1025,-0.51318,-4.6157,2.564,-4.6157,-1.0259,-14.8721,13.333,
18.9741,7.1792,3.0767,12.3076,-15.3848,-1.0259,1.5386,0.5127,-2.0513,-0.5127,-5.1284,-3.0771,-15.3848,13.333,
18.4614,9.2305,2.0513,12.3076,-14.8721,-1.5386,-2.0513,1.0254,0,-0.5127,0,-3.5898,-17.436,14.3589,
12.5642,7.9485,-2.8206,6.4104,-19.7434,-3.3333,-3.3333,0.25659,-0.25659,2.8206,2.8206,-3.3333,-14.1028,14.6155,
11.0254,4.3589,-2.8208,-0.25635,-15.6411,0.25635,-2.3076,1.2817,-2.8208,5.8975,-0.25635,4.8716,-14.1025,13.5898,
13.3335,2.0513,-0.5127,-4.6152,-10.7695,0,0,0.51269,-2.564,4.6152,-3.0771,10.769,-15.8975,11.7949,
16.1536,5.3845,0.76929,1.282,-13.0769,-1.282,-1.282,-2.8206,-0.76929,1.7947,-3.3333,2.8206,-15.1282,12.051,
18.9741,7.6919,1.0254,7.1792,-13.8462,2.564,-7.1797,0,-3.0771,-0.51318,-3.0771,0,-18.4619,13.333,
16.9231,2.0515,-4.1023,1.0256,-13.8459,3.5901,-8.7175,2.0515,-6.6663,-1.0256,-4.615,3.5901,-19.9998,9.7439,
15.6414,1.282,-5.3845,-0.76929,-13.5896,0.76929,-8.4612,0.76929,-7.9485,0.76929,-6.9231,2.3079,-15.6409,8.9744,
20.7693,4.3591,-1.282,1.7947,-15.6409,1.282,-3.8459,0.25659,-1.7947,3.3333,-4.3591,-0.25659,-13.0769,13.0769,
27.1794,3.5896,-0.51294,4.1028,-16.9231,2.0515,0.51294,0.51294,-0.51294,-1.5383,-4.1023,-2.051,-14.8718,12.8206,
31.5383,7.4358,1.7947,12.5642,-5.8972,4.3591,-1.7947,1.282,-2.8206,-1.282,-5.3845,-3.3333,-13.5896,12.5642,
25.1282,7.6921,0.51294,13.8459,-4.1028,4.1023,-3.5896,-0.51294,-1.0256,2.051,-5.1282,-2.0515,-13.3333,11.282,
15.3848,2.0513,-4.1025,6.6665,-15.3848,1.5386,-2.564,-1.5386,0,0,-4.1025,2.564,-15.3848,9.7437,
15.8972,-3.0769,-2.5642,-0.51294,-10.2566,-1.0256,0.51294,0.51294,1.5383,1.0256,-1.5383,3.0769,-12.3079,11.282,
19.4873,0,0,-1.5381,-6.1538,0,-5.6406,0.51318,2.0513,5.1284,-3.0767,0,-11.2817,12.8208,
12.0513,5.8975,-2.8203,5.3848,-21.1538,-0.25635,-13.0771,-1.7949,0.76904,5.3848,-4.8716,0.25635,-16.6665,11.5386,
11.0254,4.8716,-0.76953,8.4614,-31.0259,-2.8208,-4.8721,0.25635,3.333,6.9229,-1.7949,-0.25635,-16.1538,10.5127,
21.5383,1.5383,-2.0515,4.1023,-16.0259,-1.5388,1.0256,-1.0256,-3.5901,4.615,-4.1028,-5.6414,-17.4363,9.2307,
31.5388,3.3333,-1.7947,2.3079,-1.0259,-0.76929,2.3079,-3.3333,-5.8972,0.76929,-3.8459,-7.4358,-17.6921,7.949,
37.1792,5.3843,4.8716,2.8203,13.9741,-10,2.3076,-3.8462,-3.8462,-5.3848,-1.7949,-9.4873,-17.6924,1.7949,
45.3848,8.4614,7.436,3.3335,28.9741,-12.564,6.4102,-3.3335,-5.3848,-4.8716,-1.7949,-10.5127,-17.1797,1.7949,
43.3333,8.9744,1.282,3.3333,43.9741,-9.9998,8.9744,-4.3586,-5.8972,-1.282,-4.3586,-12.051,-15.6409,4.8718,
32.564,10.5127,1.7949,5.8975,32.0513,-11.5386,5.3848,-2.8203,-1.7949,-1.7949,-3.8462,-8.4614,-15.6411,7.436,
27.4358,7.949,3.3333,4.3591,25.8977,-20.2561,1.282,-4.8718,-1.282,-4.8718,-4.8718,-6.4099,-20.2561,5.3845,
28.9746,4.8716,4.3589,8.4614,30.5127,-22.8203,2.3076,-6.4102,-3.3335,-4.8716,-1.7949,-5.8975,-20.2563,1.7949,
27.6924,9.7437,8.7183,13.3335,34.8721,-15.3848,2.564,-5.1279,-5.6411,-5.6411,0,-2.0513,-16.9229,0,
23.0769,10.2566,9.2307,4.1023,28.718,-15.8977,3.5896,-8.2053,-3.5896,-6.6667,-2.0515,-1.5383,-14.8718,1.5383,
21.0256,8.2053,9.7434,1.5383,27.1794,-21.5383,4.6155,-5.6409,-2.5642,-3.5896,-1.5383,-2.5642,-15.3845,6.1536,
16.6665,2.8203,10,6.9229,26.4102,-19.231,1.7949,-4.3589,-4.3589,-4.3589,-1.7949,-6.9229,-19.7437,5.8975,
11.2822,0.5127,7.6924,8.7178,22.0513,-15.3848,3.5898,-12.8203,-4.1025,-5.6411,-0.5127,-7.1797,-20,1.0254,
14.1025,7.9487,8.4614,7.9487,18.2051,-16.1538,5.8975,-13.5898,-5.3848,-3.3335,-2.3076,-6.9229,-17.1797,2.3076,
18.7183,10,10.5132,5.8975,21.2822,-18.2051,4.8721,-11.5386,-6.9229,-3.8462,-6.4102,-7.4355,-20.2563,3.8462,
22.0515,11.282,13.8464,10.7693,29.7434,-13.3333,9.7434,-15.8972,-4.1023,-3.5896,-2.5642,-3.0769,-21.0256,2.5642,
17.9487,8.2051,12.8208,12.3076,23.5898,-10.769,10.7695,-16.9229,-5.1279,-6.1538,-0.5127,-2.0513,-19.4873,0.51269,
10.2563,1.5386,10.2563,5.6411,19.4873,-13.8462,8.2051,-13.3335,-7.1797,-4.1025,-1.5386,-1.5386,-15.8975,4.6152,
10.2563,2.564,4.6157,0,21.5386,-15.8975,1.5386,-16.9229,-9.2305,-1.5386,-5.1279,0,-20,3.5898,
20.2563,6.9233,5.8975,3.8462,21.2822,-14.6152,1.7949,-16.6665,-4.8716,-4.3589,-6.9229,-1.2822,-17.6924,1.2822,
19.231,6.9233,13.5898,6.9233,21.7949,-15.1279,2.3076,-14.1025,-5.3843,-2.3076,-8.4614,-4.3589,-14.1025,7.436,
9.2307,1.0256,11.7947,2.5642,21.0256,-19.4871,-1.0256,-17.4358,-8.718,1.5383,-7.6921,-7.1794,-18.4617,5.6409,
14.1023,-0.76929,5.3845,0.76929,19.7434,-22.3079,3.8459,-21.7952,-3.8464,3.3333,-6.4104,-10.5129,-20.2566,1.282,
23.3333,5.8977,4.8718,8.9744,24.3591,-15.1282,3.8464,-19.7434,-6.9231,-2.8206,-11.0256,-6.9231,-20.7693,2.8206,
19.2305,8.9741,4.8716,14.1025,34.6152,-7.436,2.8203,-17.6924,-13.0771,-7.436,-12.564,-1.7949,-22.3076,1.7949,
17.6921,10.0002,8.4617,9.4871,39.7434,-4.3591,9.4871,-15.6409,-7.4358,-2.8206,-5.3845,-5.3845,-15.6409,2.8206,
13.5898,5.3848,9.4873,2.3076,24.7434,-11.0259,7.436,-17.1797,-2.8203,-2.3076,-4.3589,-11.0259,-10,5.8975,
7.6921,1.0256,5.6409,5.1282,9.7439,-16.4104,5.1282,-16.4104,-4.1023,-1.0256,-6.6667,-6.1536,-11.7947,5.6409,
13.5898,2.3076,3.8462,6.9233,24.7439,-16.6665,5.3848,-17.1797,-9.4873,-0.25635,-9.4873,-5.3848,-17.6924,0.25635,
22.8203,1.7949,3.8462,2.8203,39.7439,-12.564,10,-21.2822,-7.436,-1.7949,-5.8975,-10,-14.1025,2.8203,
20.5129,4.6155,-1.0256,3.5896,37.9485,-4.1028,11.7947,-16.4104,-2.0515,1.0256,-1.5383,-4.6155,-9.7439,11.7947,
16.4104,9.2307,-2.5642,4.6155,31.7952,-4.6155,4.1028,-13.8459,-6.6667,1.5383,-8.718,-1.5383,-17.4358,7.1794,
18.2053,7.4358,7.4358,6.9231,34.1028,-11.0256,4.3591,-16.6667,-7.4358,-1.282,-9.9998,-7.4358,-21.7947,1.282,
12.8203,4.1025,9.7437,10.769,30.769,-12.3076,5.1284,-11.2822,-6.6665,-6.6665,-4.1025,-5.6411,-20.5127,4.1025,
8.4614,1.7949,1.7949,3.8462,26.4102,-14.6152,-0.76904,-13.0767,-9.4873,-10.5127,-8.9741,0.76904,-22.3076,2.8208,
16.1538,2.8203,2.8203,-2.3076,25.3848,-12.564,2.3076,-18.2051,-7.9487,-3.8462,-8.9746,2.8203,-20.2563,2.8203,
15.8975,4.6152,4.6152,1.5386,24.6152,-7.1797,5.6411,-15.8975,-9.231,-1.5386,-1.5386,-3.5898,-19.4873,5.1284,
14.1025,5.8975,3.8462,6.9233,29.4873,-3.333,3.8462,-13.5894,-8.4614,-3.8462,-2.3076,-9.4868,-18.7178,2.3076,
22.051,10.2566,6.6667,11.7947,30.2566,-3.0769,3.0769,-14.3591,-6.1541,-2.5642,-11.7947,-8.718,-18.4617,2.5642,
17.4358,5.1282,7.1794,6.1541,18.4617,-10.2566,6.6667,-15.3845,-8.2053,-4.6155,-12.3079,-8.718,-18.9744,4.6155,
9.9998,1.7947,9.9998,-1.282,21.282,-10.5129,11.5383,-12.0515,-3.3333,-2.3079,1.282,-8.4617,-12.5642,4.3586,
8.9744,1.282,9.9998,-1.282,29.9998,-6.4104,6.9231,-18.2053,-4.3591,-2.8206,1.282,-10.5129,-10.5129,1.7947,
8.4617,2.8206,10.5129,2.8206,25.3845,-9.4871,6.4104,-24.3591,-6.9231,-3.8459,-1.7947,-10.5129,-11.5383,1.7947,
11.2822,6.1538,12.3076,-0.5127,23.0767,-13.3335,11.7949,-17.436,-6.1538,-3.5898,0.5127,-6.6665,-9.231,3.0767,
11.7949,3.0771,10.769,-6.1538,25.6411,-10.769,13.3335,-12.3076,-5.1279,-2.0513,2.0513,-3.5898,-3.0767,5.1284,
3.5898,-1.5386,11.7949,-6.1538,20.5127,-12.8208,7.1792,-18.4614,-6.1538,1.5386,2.0513,-5.6411,-3.0771,8.7178,
0.5127,2.0513,12.8203,-0.5127,19.4873,-14.8721,2.0513,-18.9746,-7.1797,1.0254,-0.5127,-1.5386,-9.231,7.6924,
3.5901,-0.51294,6.6667,0.51294,22.5642,-14.3586,2.5642,-12.8206,-8.2048,-3.5896,-3.5896,3.0769,-12.3074,1.0256,
5.3845,-3.3333,5.8972,1.7947,21.282,-11.5383,1.7947,-11.0256,-7.949,-2.8206,-0.76929,0.76929,-12.5642,3.3333,
6.9231,-0.25659,10.5129,3.3333,18.2053,-12.0515,-0.76929,-14.6155,-5.8972,0.25659,0.25659,-7.4358,-14.1028,7.9485,
10.5129,0.76929,7.949,2.3079,21.282,-13.5896,3.8459,-19.2307,-5.8972,-0.76929,-3.3333,-11.0256,-17.6921,4.8718,
9.7437,2.564,7.1797,8.2051,27.6924,-9.231,9.231,-14.8716,-8.7178,-2.564,-3.5898,-5.6411,-18.4614,3.5898,
5.3845,0.76929,8.9744,2.8206,23.3333,-11.5383,7.949,-14.1023,-9.4871,-0.76929,-0.76929,-7.4358,-15.1282,4.3591,
7.4358,-0.76929,9.4871,-4.8718,22.8206,-20.2566,8.4617,-17.6921,-7.4358,0.76929,1.7947,-8.4617,-11.0256,3.3333,
11.5383,0.76929,8.9744,-1.7947,33.5896,-19.7434,8.4617,-19.7434,-4.8718,-0.25659,0.25659,-6.4104,-12.051,4.8718,
13.5896,2.3079,10.5129,0.76929,36.1541,-12.5642,9.4871,-19.2307,-2.8206,-0.76929,-0.76929,-10.5129,-12.5642,3.8459,
14.3589,7.6924,13.3335,-2.0513,26.6665,-13.3335,9.2305,-16.9233,-4.6152,1.5386,0,-12.3076,-9.7437,0,
12.8203,3.5894,11.7949,-7.1797,19.4868,-20,7.6919,-19.4873,-4.6157,6.1538,0,-10.2568,-9.231,0,
15.6411,1.2822,13.5898,-2.3076,20.769,-7.9487,10,-18.2051,-1.2822,7.436,-1.7949,-4.3589,-7.9487,6.4102,
10.769,-0.5127,4.1025,-2.0513,9.7437,0.5127,2.0513,-17.9487,-8.7178,0.5127,-9.231,-10.769,-16.4102,3.0771,
10.0002,1.282,-3.3333,-0.25659,0.76929,0.25659,2.3079,-9.9998,-3.8459,7.949,-0.76929,-8.9744,-9.9998,3.3333,
13.0769,4.3591,-2.3079,-1.7947,0.25659,-3.8459,7.9485,-8.4617,-0.25659,8.9744,5.8972,-3.3333,-0.76929,4.8718,
16.6665,2.3076,4.3589,-3.3335,1.7949,-8.9741,10,-13.0771,-2.3076,-1.2822,1.2822,-4.8716,-3.8462,3.3335,
22.5642,2.5642,7.1794,7.6921,7.1794,-4.6155,5.6409,-8.718,-4.6155,-2.5642,-5.1282,-6.1541,-10.7693,7.1794,
24.6152,6.6665,2.564,10.769,8.2051,1.5386,-1.5386,-10.769,-10.769,-2.0513,-10.2563,-9.7437,-17.9487,3.5898,
25.1284,8.7183,6.1538,2.0513,2.564,1.5386,4.6157,-15.3843,-6.1538,-1.5386,-5.1279,-12.3076,-10.769,-6.1538,
26.1538,6.6665,10.769,-2.0513,0.51269,-1.0259,8.2051,-12.8208,-0.5127,0,0,-8.7178,-2.0513,0.51269,
24.8716,2.8203,6.9229,-0.25635,0.25635,-1.2822,4.8716,-10,-1.7949,1.2822,-2.3076,-2.3076,-5.3848,10,
22.8208,5.3848,5.8975,-0.76904,-1.2817,0.25635,5.3848,-12.564,-2.8203,1.7949,-0.25635,-7.4355,-3.8462,5.3848,
23.8459,8.4617,6.4104,1.282,-0.76929,-2.3079,5.3845,-12.0515,-5.8972,-0.25659,2.8206,-16.1541,-0.25659,0.25659,
22.051,3.5896,0.51294,1.5383,-0.51294,-5.1282,4.6155,-8.718,-5.6409,-1.0256,1.5383,-10.7693,-3.0769,7.1794,
15.1279,3.333,-3.8462,-5.3848,3.333,-1.7949,3.8462,-8.4614,-1.7949,0.25635,0.25635,-0.25635,-3.8462,11.5386,
12.564,1.7949,-2.8203,-5.8975,0.76904,-2.3076,4.3589,-7.436,-0.25635,0.25635,1.7949,-1.2822,-0.76904,6.9229,
21.0256,0.51294,-2.5642,5.1282,-2.5642,-3.0769,6.6667,-3.0769,-0.51294,3.0769,4.1023,-2.0515,-1.0256,9.2307,
22.8203,1.2822,-1.7949,7.436,0.25635,-3.8462,1.7949,-7.9487,-9.4873,1.7949,-0.25635,-3.3335,-6.9229,10,
22.3076,1.7949,7.436,0.25635,2.3076,-5.8975,3.3335,-13.5894,-8.9741,-0.25635,-1.7949,-7.4355,-4.8716,5.8975,
24.1025,0.51269,12.3076,-0.5127,-0.5127,-7.6924,5.6411,-9.2305,-1.5386,2.564,1.0259,-5.1279,-3.0767,4.1025,
22.0513,-4.6157,3.0767,0.5127,-7.1797,-11.2822,0,-10.7695,-2.5645,6.6665,0,1.0254,-5.6411,3.0767,
23.3333,-2.3074,3.3333,3.8464,-7.4358,-11.5383,-1.282,-13.0769,-3.3333,7.4363,1.282,3.3333,-2.3074,8.4617,
24.8716,2.3076,7.9487,5.3848,-3.3335,-7.436,-1.7949,-13.5898,-5.8975,1.7949,0.25635,-0.25635,-4.3589,5.8975,
24.103,2.0513,4.6157,3.5898,2.0513,-1.5381,0,-12.3076,-7.1792,0,-3.0767,-3.5894,-7.6919,0,
23.3335,2.3076,4.8721,1.2822,4.3594,-0.25635,0.25635,-11.5381,-8.4614,-1.2817,-11.0254,-8.4614,-7.9487,2.8208,
24.1023,6.1536,9.7434,-2.0515,4.615,-3.0769,4.1023,-10.2566,-3.5901,1.0256,-4.6155,-8.2053,-1.0256,11.282,
16.1536,2.8206,1.282,-6.9231,-3.3333,-8.4617,5.8972,-8.9744,-1.282,1.282,5.8972,-6.4104,-3.3333,10.5125,
11.0256,7.4358,-7.9485,3.3333,-7.9485,1.282,-0.76929,-3.8459,-3.8459,4.3591,0.76929,-2.8206,-9.9998,8.4617,
16.9231,14.3591,-4.1028,13.8459,-8.718,11.7947,-3.0769,-2.0515,-1.0256,11.7947,-0.51294,0.51294,-5.6409,12.8206,
12.8206,5.6409,-5.6409,3.5896,-16.9231,2.5642,-2.5642,-8.2053,-3.0769,7.1794,4.6155,-3.0769,-7.1794,9.2307,
10.5129,3.3333,-4.3591,-1.282,-13.0769,2.8206,1.282,-6.4104,-1.282,4.3591,8.4617,-1.282,-5.8972,9.9998,
8.9741,3.8462,-5.3848,-0.25635,-14.1025,5.8975,0.76904,-5.3848,-0.76953,0.25635,1.2817,-3.8462,-3.8462,10.5127,
9.4871,5.3845,-7.4358,3.3333,-17.6926,5.3845,-0.76929,-3.3333,-4.3591,0.76929,-2.8206,1.282,-7.4358,8.4617,
13.3333,4.1028,-6.1536,1.5383,-13.8459,3.5896,-1.5383,-8.718,-5.6409,4.1028,-3.0769,7.6926,-9.2307,5.6414,
22.8206,6.9231,-1.7947,-1.7947,-7.9485,3.8464,1.282,-9.9998,-1.282,8.9744,-0.76929,0.76929,-0.76929,6.4104,
24.8721,5.8975,0.76953,-7.9487,-11.0254,-1.7949,2.3076,-5.3843,-2.3076,5.3848,0.25635,-13.5898,-0.25635,6.4102,
24.3586,3.8459,2.3074,-5.3845,-10.0002,-3.3333,3.8459,-6.4104,-1.282,0.76929,2.8206,-9.4875,-0.76929,4.8718,
27.6924,7.6924,0,0,-5.6411,-0.51269,2.0513,-10.769,-3.5898,-2.0513,2.0513,0,0.5127,5.6411,
27.1792,7.6919,0,-3.5898,-7.6924,-2.0513,2.0513,-6.667,-0.51318,0,3.0767,-1.0259,2.0513,9.7432,
17.9485,2.5642,-4.6155,-10.2566,-12.3079,-3.5896,-1.0256,-3.5896,1.0256,5.1282,3.0769,-2.0515,2.5642,8.718,
12.3076,1.0254,-13.8462,-9.231,-12.8208,0.5127,-4.1025,-6.6665,-5.1284,4.1025,0.5127,3.0767,-0.5127,7.1792,
10.5129,-0.25659,-12.5642,-5.8972,-16.1541,1.7947,-0.25659,-6.4104,-6.4104,2.3079,1.7947,8.4617,0.25659,10.0002,
8.718,-2.051,-3.0769,-0.51294,-18.9744,-1.0256,0.51294,-2.051,-4.1023,2.0515,1.0256,11.282,4.6155,10.2566,
9.7437,-3.5894,0,5.1284,-16.9229,-4.6152,0,-3.0767,-4.1025,1.0259,-0.5127,12.3081,4.1025,8.2051,
11.0259,-0.25635,-1.7949,5.8975,-8.9741,-2.8203,2.8208,-4.8716,-5.3843,-1.2817,0.25635,9.4873,1.2822,7.9487,
7.9487,1.7949,-3.333,2.8208,-6.9229,0.25635,0.76953,-5.3843,-8.9741,-3.333,-2.3076,0.25635,-0.25635,8.4619,
10.769,0,0.5127,1.5381,-13.8462,1.0254,1.5381,-5.6411,-7.6924,-5.1284,-3.0771,-4.6157,0,4.1025,
24.6152,5.1279,11.2822,4.6152,-7.6924,4.6152,3.0767,-4.1025,-7.6924,-7.1797,0.5127,-3.0771,-0.5127,-1.0259,
33.8462,10.769,12.3076,5.6411,7.3076,5.1279,1.5386,-6.6665,-10.769,-7.1797,-1.5386,-9.7437,-1.5386,-1.5386,
39.4873,14.8721,6.667,2.5645,21.5386,2.5645,0,-11.2817,-11.7944,-7.6919,-7.1792,-11.2817,-3.5894,0,
54.4873,23.5898,4.6157,1.5386,27.1797,13.8462,0,-6.6665,-13.8462,-12.3076,-8.2051,-8.2051,-8.7178,0,
69.4873,32.8208,5.6411,3.0771,42.1797,28.8462,2.0513,-2.0513,-13.333,-8.7178,-4.6152,-9.7432,-5.1279,-4.1025,
71.5388,37.6926,8.9744,6.4104,51.5388,28.4617,1.282,-7.9485,-12.5637,-4.3586,-7.9485,-12.5637,-1.282,-6.9231,
68.2053,36.4104,9.7439,7.6926,48.2053,28.2053,2.5642,-6.1536,-12.3074,-4.1023,-7.1794,-11.7947,-2.5642,-5.6409,
64.6152,34.3589,10.769,9.2305,44.6152,27.6924,3.5898,-5.1284,-11.7949,-4.6157,-7.1797,-11.2822,-3.5898,-4.6157,
61.0254,32.3076,11.2822,9.7437,40.5127,27.1797,4.1025,-4.1025,-12.3076,-5.1284,-7.1797,-11.2822,-5.6411,-4.1025,
56.4104,29.2307,11.282,10.2566,35.8972,25.6409,4.1028,-4.1028,-13.3333,-6.1541,-8.2053,-12.3079,-7.6921,-4.1028,
51.5386,26.4102,10.5127,10,31.0259,23.8462,3.8462,-3.8462,-14.6152,-7.9487,-8.9741,-13.0767,-10.5127,-4.3589,
46.9229,23.333,10.5127,10.5127,26.4102,22.3076,3.8462,-3.8462,-15.1284,-8.9746,-10,-13.5898,-12.5645,-4.3594,
41.0256,20.0002,9.7434,10.2566,20.5129,20.5129,3.5896,-3.5896,-16.4104,-11.282,-11.282,-14.8718,-16.4104,-4.6155,
33.8459,17.9485,11.7947,9.7434,14.8718,19.4871,1.0256,-1.5383,-17.4358,-9.7439,-8.2053,-11.282,-16.4104,-1.0256,
31.7947,18.4612,8.2048,12.8206,11.7947,19.4871,0.51294,-0.51294,-16.4104,-7.1794,-9.7439,-3.5901,-14.3591,-0.51294,
27.9487,16.6665,3.3335,10,5.3848,16.6665,-0.25635,-0.76904,-16.1538,-8.4614,-15.6411,-1.7949,-16.6665,0.25635,
15.6409,12.0515,0.76929,2.3079,1.7952,12.0515,-2.8206,1.282,-15.1282,-9.9998,-13.5896,-2.8206,-17.1794,-0.76929,
7.6921,7.6921,-3.0769,-1.0256,1.0256,6.1536,5.1282,1.5383,-8.718,-5.1282,-2.0515,-3.0769,-9.2307,3.5896,
10,5.8975,-7.9487,-3.333,-0.76904,4.3589,8.9746,0.25635,-5.3843,-0.76904,0.76953,-0.25635,-4.3589,8.4614,
5.6411,1.0254,-7.6924,-4.1025,-0.5127,4.1025,5.6411,-0.5127,-3.0771,0.5127,-0.5127,4.6152,-7.1797,6.6665,
-0.5127,3.0771,-1.0254,4.1025,0.51269,5.6411,4.6152,-1.0254,-3.5898,-4.1025,-4.1025,6.667,-12.8203,3.0771,
-1.0259,5.6411,0,7.6924,-9.7437,4.6152,4.1025,0,-9.231,-10.769,-8.7178,2.564,-14.8716,0.51269,
-2.0513,3.5894,-2.0513,4.1025,-14.8721,4.1025,4.1025,2.0513,-7.6924,-5.1284,-4.1025,3.5894,-8.2051,4.1025,
-7.9485,2.8206,-4.3591,4.3591,-6.9231,5.3845,1.282,2.3079,-4.8718,-1.282,-1.7947,10.0002,-8.4617,7.4358,
-7.9487,3.3335,-5.3843,4.8721,-5.3843,7.9487,2.3076,3.3335,-2.3076,-3.8462,-2.8203,11.5386,-11.5381,4.8721,
-2.8208,2.3076,-3.3335,6.4102,-11.0259,13.0767,6.4102,5.8975,-2.8208,-2.3076,-2.3076,10,-7.436,6.4102,
-3.8459,1.282,-2.3074,11.5383,-9.4871,14.1028,6.4104,7.949,-3.8459,-1.282,-1.282,13.5901,-4.3586,11.5383,
-4.8718,0.25659,-1.282,8.4617,-9.9998,10.0002,3.3333,4.3591,-0.25659,-2.3079,-0.25659,12.0515,-7.9485,10.0002,
-5.8975,-0.76904,-4.8716,-0.76904,-10,8.4614,0.25635,2.3076,-0.25635,1.2822,0.25635,7.436,-10.5127,8.4614,
-13.8464,-5.1282,-8.718,-7.6926,-7.6926,4.1023,5.6409,1.0256,-1.0256,3.5896,3.0769,10.2561,-3.0769,13.3333,
-17.1794,-4.3591,-8.4617,-6.9231,-6.4104,-1.7952,7.4358,-0.76929,2.3074,1.7947,3.3333,8.9744,0.76929,13.0769,
-9.2305,3.0771,-5.6411,1.0259,-1.5386,6.6665,2.0513,-0.5127,0,0,-3.0767,4.1025,-10.769,7.1797,
-7.436,1.7949,-3.8462,4.8716,-0.25635,16.1538,1.2817,0.25635,-2.8208,-2.3076,-2.8208,2.8203,-17.6924,7.436,
-10.7695,-1.0259,-4.6157,2.0513,-4.1025,10.769,4.1025,0,0,-3.0771,2.564,1.5381,-8.7183,11.2817,
-7.4355,-0.25635,-4.3589,-4.8716,-4.8716,5.8975,4.8721,-0.76904,1.2822,0.25635,1.2822,1.7949,-2.8203,10,
-3.0769,1.5383,2.051,-6.1541,-1.5383,10.7693,6.1536,-0.51294,-1.0256,0.51294,-3.0769,7.6921,-8.718,7.6921,
-3.8462,3.8462,7.9487,1.2822,-1.2822,12.564,4.8716,-2.8203,-3.8462,-3.3335,-2.3076,10.5127,-14.6152,8.4614,
-6.1538,0.5127,8.7178,5.6411,-8.7178,7.1797,2.0513,-0.5127,-6.1538,-2.0513,-3.0771,5.6411,-12.3076,7.6924,
-8.4617,-2.3079,3.8459,6.4104,-12.5642,7.9485,0.76929,9.4871,-5.8977,-0.76929,-8.4617,7.9485,-12.0515,4.8718,
-7.4358,-1.282,0.25659,4.3591,-11.5383,12.5642,2.3079,13.0769,-1.282,-0.25659,-4.8718,12.0515,-13.5896,7.9485,
-7.6924,-5.1279,-1.0254,-2.564,-18.4614,5.6411,1.0259,4.6152,-0.5127,0.51269,0.51269,2.0513,-11.7949,9.231,
-6.6665,-3.0767,1.5386,0,-21.0254,3.0771,-1.0254,3.0771,0.5127,0.5127,-1.0254,0,-9.2305,9.231,
-6.1538,-0.5127,-2.564,3.5898,-13.3335,9.231,-1.0254,6.6665,5.1284,-2.0513,0.51269,8.2051,-9.7437,8.7178,
-5.3848,0.25635,-10.5127,0.76904,-4.8721,13.5898,-0.76953,7.9487,-0.25635,-1.7949,2.3076,11.5386,-10,8.9741,
-5.3845,-0.25659,-5.8972,3.3333,-9.9998,12.0515,1.282,9.4871,-4.3591,0.25659,-3.3333,11.5383,-6.9231,10.0002,
-8.9741,-5.8975,-0.76904,4.8716,-18.7178,4.8716,2.3076,5.3848,0.76904,-0.76904,-10.5127,13.0771,-9.4873,6.4102,
-0.51294,-3.5896,-1.0256,4.6155,-7.6921,7.1794,1.5383,4.1028,-1.5383,0.51294,-8.2048,15.3845,-13.8459,9.7439,
6.667,-0.5127,-2.0513,2.564,-4.1025,5.6411,0.51269,4.1025,-10.769,-3.5898,-7.6924,3.5898,-14.8716,5.1284,
10.7693,8.718,3.5896,8.718,-6.6667,1.5383,4.1023,10.2566,-4.6155,-6.1541,-4.6155,-1.5383,-8.718,-2.5642,
10.7695,10.7695,0,5.1284,0,0.51318,0.51318,7.1797,-3.5894,-5.1279,-5.6406,-3.5894,-9.7432,-1.0254,
11.7949,6.1538,-0.5127,-6.1538,8.7178,3.5898,2.0513,0.51269,-4.1025,-2.564,-3.5898,-5.1279,-10.769,5.6411,
8.7183,2.5645,2.0513,-7.1792,-1.0254,0,2.5645,1.5386,-4.1025,-5.1279,0,-3.5894,-8.7178,3.0771,
1.5386,1.0259,2.5645,-3.5894,-8.7178,-5.6406,0,4.1025,-4.1025,-4.1025,0,4.1025,-7.1792,2.5645,
1.0256,3.0769,2.5642,1.5383,-4.1028,-2.5642,-1.0256,7.1794,-6.1541,-1.5383,-4.1028,5.6409,-8.718,8.718,
6.4104,3.8464,-1.282,13.0769,-4.3586,4.3591,-2.3074,7.949,-7.9485,-1.7947,-4.8718,1.282,-11.0256,10.5129,
5.3845,1.282,-6.9231,17.1794,-7.9485,4.8718,-0.76929,6.9231,-4.8718,-0.25659,-3.8459,0.25659,-8.9744,8.4617,
1.0259,0,-6.6665,11.7949,-7.6924,4.6152,-0.5127,10.2563,-3.5898,0,-7.1792,6.1538,-6.1538,10.7695,
4.3591,-0.25659,-2.8206,2.3079,-8.4617,4.8718,-0.76929,10.0002,-4.8718,0.25659,-6.9231,8.4617,-4.3591,11.5383,
5.1284,-0.51269,0,1.0259,-8.7178,1.5386,0,2.0513,-5.6406,1.5386,-2.0513,-1.0254,-2.564,7.6924,
0.5127,-0.5127,3.0767,6.6665,-6.667,-6.667,0.5127,1.0254,-4.6152,1.0254,-6.667,-8.2051,-4.6152,6.6665,
6.6665,-0.5127,6.6665,7.6924,-7.1792,-6.6665,4.6152,6.1538,-1.0254,0.5127,-11.2822,-7.6924,-6.6665,7.6924,
11.7952,3.5896,9.2307,1.5383,-5.1282,-0.51294,2.5642,0.51294,-4.6155,-2.051,-11.282,-11.282,-8.2048,3.5896,
4.6152,3.5898,12.3076,0.5127,4.6152,-3.0771,2.564,-0.51269,-3.5898,-0.51269,-7.6924,-12.8208,-3.0771,4.1025,
-1.7949,-0.25635,10.5127,0.25635,7.4355,-3.8462,3.333,10.5127,-1.2822,2.3076,-4.8721,-6.4102,-1.7949,8.9741,
-1.2822,-0.25635,6.9233,-1.2822,5.3848,3.3335,0.25635,10,-5.3848,-2.3076,-3.8462,0.25635,-11.0254,7.9487,
-2.564,-0.5127,2.564,1.5386,3.0771,8.2051,0,2.0513,-5.6411,-5.1279,-5.1279,0,-14.8716,3.5898,
-4.8716,2.3076,-0.25635,7.9487,3.8462,11.5386,-0.25635,6.4102,-3.8462,-0.25635,-6.9229,0.25635,-10.5127,6.4102,
-3.5898,2.0513,0,6.1538,-2.0513,4.6152,0,11.7949,-2.0513,2.564,-4.6152,-0.5127,-6.1538,7.6924,
-2.3076,-1.2817,1.2822,3.3335,-5.3843,-3.333,5.8975,8.9746,4.3589,-0.25635,0.25635,-1.2817,-2.8203,5.8975,
-6.9231,0.25659,0.25659,-0.76929,-3.8464,-0.25659,9.4871,7.9485,2.8206,-0.25659,-1.282,-1.7947,1.282,6.9231,
-5.8975,-0.76904,-2.8203,-3.3335,-8.9746,1.7949,8.4614,5.8975,0.76904,1.7949,-3.3335,-3.3335,1.2822,2.8203,
-0.25659,-1.7947,-2.3079,1.7947,-11.0256,-2.8206,3.3333,1.7947,0.25659,0.76929,-4.3591,0.25659,-3.3333,2.3079,
-0.25635,1.7949,-2.3076,3.8462,-5.3848,-2.3076,1.7949,-0.76904,0.76904,0.25635,-5.8975,1.7949,-3.3335,10,
0,3.0767,-6.667,-1.5386,-5.6411,-4.1025,6.1538,0,2.564,0,-6.1538,-0.51318,2.0513,11.2817,
4.6157,-0.5127,-9.7437,-2.0513,-12.3076,-7.1792,5.6411,6.667,0,0,-3.5894,1.5386,2.5645,4.6157,
3.0771,-5.1284,-9.231,-6.6665,-15.8975,-8.7178,1.5386,11.2822,0,1.0259,1.5386,1.0259,-0.5127,0,
-0.25635,-4.3589,-6.9233,-10,-13.0771,-8.9746,1.2822,10.5127,1.7949,5.8975,3.8462,0.25635,-1.2822,3.8462,
2.5642,-3.0769,-6.6667,-3.0769,-10.2566,-2.051,1.5383,8.718,-1.0256,6.6667,1.0256,6.1541,-2.051,8.718,
6.1538,-6.6665,-7.1797,3.0767,-3.0771,5.6411,-1.5386,9.231,-3.5898,1.5386,-2.0513,4.6152,-5.6411,7.6924,
9.231,-3.5898,-3.5898,4.1025,1.0254,4.1025,-2.564,10.769,-3.0771,-1.5386,-0.5127,0.5127,-10.769,3.5898,
11.0259,-1.2822,-1.2822,2.3076,-6.4102,-2.8203,0.25635,8.9741,-1.2822,1.7949,-0.25635,3.3335,-13.5898,5.3848,
5.6409,-1.0256,-2.0515,2.051,-6.1541,-2.0515,1.0256,10.2561,-1.0256,3.0769,-3.5901,6.1536,-11.2825,11.7947,
1.7949,1.7949,0.25635,3.8462,-0.76904,-0.25635,-1.2822,12.0513,-1.2822,-0.25635,-3.8462,4.3589,-6.4102,11.5386,
6.9231,2.3079,-0.76929,8.4617,-8.4612,-8.9744,-2.3074,7.4358,-2.3074,0.76929,-4.3586,0.76929,-6.4099,5.3845,
8.2048,1.0256,-2.0515,8.718,-13.8464,-11.282,-1.0256,5.6409,-4.1028,5.6409,-6.6667,2.051,-8.718,5.1282,
5.3845,-0.76929,0.76929,-2.3079,-8.9744,-7.4363,1.7947,5.8972,-1.7952,5.8972,-3.3333,1.282,-4.3591,7.9485,
10.2563,0,0.5127,-14.8721,-3.0771,-5.6411,1.5381,1.5381,-0.51318,1.5381,-0.51318,0,-0.51318,8.7178,
16.4102,2.564,-1.0259,-12.3081,6.1538,0,0,2.0513,-2.0513,0,-2.5645,5.6406,-2.0513,9.7432,
11.282,0.51294,-3.0769,-2.5642,6.1536,1.5383,-0.51294,6.1536,-3.5896,-0.51294,-5.6409,6.6667,-7.1794,8.2048,
5.3848,1.7949,-3.8462,1.7949,-0.25635,3.8462,-5.3843,10,-6.4102,-1.7949,-6.4102,0.25635,-10.5127,6.4106,
3.5896,1.5383,-3.5896,-3.0769,0.51294,7.6921,-1.5383,12.8206,-0.51294,3.5896,-2.0515,-4.1028,-4.1028,10.7693,
-0.25635,-1.7949,-6.4102,-9.4873,-0.76904,4.3589,1.2822,7.436,3.8462,4.8716,-0.25635,-1.2822,0.25635,15.1279,
1.2822,0.25635,-5.8975,-9.4873,-5.3843,-0.25635,-3.8462,5.3848,0.76953,2.3076,-3.333,1.7949,-4.8716,14.6157,
6.6665,2.0513,0.5127,-9.231,-6.1538,-1.5386,0,9.231,2.0513,0,-1.5386,-4.1025,-7.1792,8.7178,
8.9746,1.7949,2.8208,-8.9741,-2.3076,-3.333,4.8721,10.5127,-0.25635,-3.333,0.25635,-7.436,-4.8716,2.3076,
6.1538,1.0259,0,-10.769,-1.5386,-6.1538,5.6411,9.231,-0.5127,1.5386,-1.5386,-2.564,0,6.1538,
1.2822,0.25635,-2.8203,-15.6411,-3.8462,-3.333,4.8721,10,-0.25635,2.3076,-0.76904,-1.2817,0.76953,12.0513,
3.8462,1.7949,-7.9487,-14.6152,1.7949,1.7949,-0.25635,8.9746,-4.8716,-6.9229,-0.25635,0.25635,-5.3848,6.9229,
8.718,0.51294,-8.718,-14.3591,5.1282,4.1028,-0.51294,8.718,-4.1023,-4.6155,-0.51294,6.6667,-8.2048,5.1282,
7.436,-0.76904,-6.9229,-16.6665,-0.25635,1.7949,0.25635,9.4873,-3.3335,2.3076,-2.3076,3.3335,-7.436,7.9487,
10,1.2822,-1.7949,-11.5386,2.3076,-0.76904,0.76904,10.5127,-2.3076,0.25635,-0.25635,-1.7949,-5.3848,10,
10.2561,4.1023,2.5637,-3.0769,3.0769,-4.6155,1.0256,9.7434,-2.5642,-5.1282,-1.0256,-7.1794,-5.6414,7.1794,
3.5896,8.718,3.0769,1.0256,-4.1028,-3.0769,5.6409,10.2561,-3.5896,-2.5642,-1.0256,-11.282,-3.5896,9.7434,
-2.5642,5.6409,1.0256,-2.5642,-7.6921,0.51294,6.6667,12.8206,-0.51294,-2.051,2.0515,-6.1541,-1.0256,9.2307,
-3.333,0.76953,0.25635,-0.76904,-3.8462,0.76953,-0.25635,15.6411,-2.3076,-4.3589,0.25635,1.7949,-1.2817,6.4102,
-3.8462,1.7949,2.3076,0.25635,0.25635,0.76904,-0.25635,13.5898,-7.436,-2.3076,-1.2822,-2.8203,-2.3076,7.9487,
-6.6667,2.5642,4.1028,-6.1536,1.0256,1.5383,2.5642,11.282,-7.1794,-2.5642,-2.5642,-5.6409,-1.0256,6.6667,
-11.2822,3.0771,3.0771,-7.1792,0.5127,-0.5127,0.5127,13.8462,-4.1025,-4.1025,-6.6665,1.0259,-1.0254,5.6411,
-15.1284,0.76904,1.2817,-3.8462,0.76904,-2.3076,0.25635,15.1279,-4.8721,-0.25635,-6.4102,0.76904,-3.8462,8.4614,
-17.436,0,5.1279,-4.6157,4.1025,0.5127,0,14.8716,-8.7183,1.5381,-4.6157,-3.0771,-5.6411,9.7432,
-18.718,1.282,13.0769,-2.8206,7.4358,3.8459,-1.282,16.6667,-5.8977,-1.282,-4.8718,2.3074,-6.4104,7.4358,
-20.7693,0.76929,10.0002,-0.76929,9.4871,6.9231,-2.8206,14.6155,-3.3333,-2.3079,-6.9231,6.4104,-4.3591,4.8718,
-20.2563,2.8203,5.8975,1.7949,13.0771,10,-2.3076,17.1797,-7.9487,-1.7949,-5.3848,-2.3076,-3.8462,7.9487,
-23.8459,1.282,4.8718,3.3333,8.9744,6.9231,-1.282,19.2307,-10.5125,-4.8718,-4.3586,-11.0256,-6.4099,5.3845,
-24.1028,1.5383,4.6155,7.1794,7.1794,4.1023,-1.5383,13.8459,-8.718,-5.6409,-6.6667,-4.6155,-6.1541,3.0769,
-18.4617,1.5383,5.1282,8.718,12.8206,3.0769,-2.051,6.6667,-9.2307,-4.6155,-7.6921,-1.5383,-6.1536,3.0769,
-13.0767,0.25635,6.9233,3.3335,15.1284,3.8462,-0.25635,7.9487,-8.4614,-6.4102,-3.8462,-8.9741,-6.9229,4.3589,
-9.7437,1.5386,7.6924,1.5386,14.8716,7.1797,-1.5386,11.2822,-10.2563,-7.6924,-5.1284,-9.231,-8.7178,5.6411,
-10.7688,1.0256,8.2053,1.0256,13.3337,1.5388,-1.0256,8.718,-8.7175,-4.1023,-4.1023,-4.1023,-6.6663,5.1282,
-11.0259,4.8716,12.0513,-0.76904,11.5386,-4.3589,1.7949,11.0254,-1.7949,-0.76904,1.2822,-8.9746,-1.7949,0.76904,
-14.8721,7.1792,11.7944,0,7.1792,2.0513,2.0513,14.3589,-3.0771,-4.6157,-2.0513,-14.8721,-3.0771,0,
-21.0259,1.5386,8.2051,-1.5386,6.1538,3.5898,2.0513,12.3076,-7.6924,-3.5898,-5.1284,-9.231,-5.1284,2.564,
-16.1541,-0.25659,8.4617,-5.3845,12.0515,2.3079,0.25659,10.0002,-8.4617,1.282,-2.3079,-2.8206,-5.3845,0.25659,
-5.8975,4.3589,12.564,-6.4102,13.0771,8.4614,2.3076,10,-5.8975,1.2822,-1.7949,-5.8975,-1.2822,-2.8203,
-4.6155,7.1794,13.3333,-3.0769,8.2048,8.7175,6.6663,10.2561,-10.2566,-4.1028,-7.1794,-9.2307,1.0256,-1.0256,
-9.4873,5.8975,5.8975,1.7949,8.4614,4.3589,4.3589,9.4873,-15.6411,-7.436,-7.9487,-5.3848,-1.7949,-3.8462,
-12.0513,-0.25635,0.25635,3.3335,5.8975,2.3076,3.3335,10,-7.9487,-4.8716,-3.8462,-4.8716,0.76953,-5.8975,
-10.7693,-0.51294,-1.0256,0.51294,1.0256,2.5642,5.1282,14.8718,-1.0256,-0.51294,-2.0515,-2.0515,6.6667,0.51294,
-13.5898,0.25635,-3.3335,-6.4102,-5.8975,-0.25635,0.25635,15.6411,-4.8721,0.25635,-2.3076,1.7949,4.3589,0.76904,
-11.2822,1.0259,1.0259,-0.51269,-6.1538,1.5386,0,15.8975,-8.7178,0.5127,0,-2.0513,4.1025,-2.564,
-10.2566,2.051,3.5896,7.6921,-3.5896,4.6155,-1.0256,14.3591,-10.2566,-1.5383,-3.5896,-8.718,3.5896,1.0256,
-13.5896,0.76929,3.3333,7.949,-7.9485,4.3591,-0.76929,12.5642,-4.3586,-1.282,-3.3333,-5.3845,6.9231,2.8206,
-19.4873,0,-0.51318,5.1279,-16.9233,0,0.5127,12.8203,-6.1538,-2.5645,-2.5645,0,5.1279,1.5381,
-14.8718,1.0256,-2.5642,-1.0256,-8.718,4.6155,1.5383,17.9485,-10.2566,-2.0515,-4.6155,1.5383,3.0769,4.1023,
-5.8975,0.76904,0.76904,-4.8716,-1.7949,9.4873,2.3076,17.6924,-5.3848,-1.2822,-0.76904,-1.2822,4.3589,3.3335,
-5.8972,2.8206,9.4871,0.76929,-16.7949,-0.76929,2.8206,14.6155,-1.7947,-2.8206,2.3079,-1.282,3.3333,-0.76929,
-4.6152,2.564,16.9233,6.6665,-17.436,-6.1538,5.6411,12.8208,-9.2305,-5.1279,-3.5898,0,0,0,
-0.51269,1.0259,8.2051,2.5645,-2.436,0.5127,-1.0254,9.7437,-20,-9.2305,-10.769,-6.1538,-5.6411,0.5127,
2.3076,0.25635,-0.76953,-1.2822,12.564,0.25635,0.25635,14.6152,-11.0259,-2.8208,-1.7949,-2.3076,-0.25635,1.7949,
-6.4102,-4.8716,-3.333,-6.4102,20.2563,-12.564,3.8462,16.1538,-1.2817,-0.25635,3.3335,5.8975,5.3848,0.25635,
-8.9746,-6.4102,-2.3076,-7.436,22.8203,-11.5386,3.3335,16.1538,-6.9229,-3.3335,2.3076,3.3335,5.3848,2.8203,
-7.9487,-7.436,0.76904,-6.4102,30.5127,-7.436,7.436,14.1025,-5.8975,-0.76904,5.8975,-2.8203,7.9487,6.4102,
-14.6157,-8.4619,3.8462,-3.3335,18.7178,-16.667,4.3589,5.3843,-1.2822,-0.25635,0.25635,-1.2822,5.8975,2.3076,
-11.5383,-5.8972,4.8718,3.3333,16.1541,-18.718,2.8206,6.4104,-2.8206,-1.7947,-4.3586,1.282,4.3591,-1.282,
-5.3845,-5.3845,0.25659,3.8459,19.2307,-12.5642,6.4104,11.5383,-3.3333,-0.25659,4.8718,-0.25659,6.9231,-1.282,
-7.4358,-3.3333,1.282,0.76929,18.718,-8.4617,4.3591,7.949,-4.8718,-1.7947,4.8718,-0.76929,5.8977,-0.76929,
-7.9485,-1.282,9.4871,0.25659,20.7693,-5.3845,4.3591,3.8459,-7.9485,-4.8718,-3.8459,-0.25659,4.3591,0.76929,
-2.5642,-1.5383,12.3079,1.0256,23.0769,-1.5383,3.5896,8.2053,-8.718,-5.6409,-6.6667,-0.51294,1.5383,0.51294,
-0.25659,0.76929,11.0256,1.7947,26.4104,0.25659,-0.76929,10.5129,-2.8206,-3.3333,-1.282,-1.282,0.76929,-3.3333,
-7.436,-3.8462,3.8462,-2.8203,22.3076,-8.4614,0.76904,1.2822,0.25635,-0.25635,2.3076,-1.7949,3.8462,-2.8203,
