"AF3","AF4","F3","F4","F7","F8","FC5","FC6","O1","O2","P7","P8","T7","T8",
-6.6667,3.5896,25.1282,44.1023,1.5383,9.2307,-4.1028,-17.4358,-17.4358,-16.4104,37.4358,15.3845,-8.718,-1.5383,
-3.3333,6.9231,32.0515,52.5642,-1.282,22.3079,1.282,-14.6155,-6.9231,-16.1536,45.3845,25.3845,-3.8459,-1.7947,
-8.9741,8.9746,35.6411,55.6411,-6.4102,30.5127,-1.2817,-15.1279,0.25635,-17.1792,46.9233,19.231,-0.25635,-2.3076,
-7.436,11.5386,30.5127,55.1284,-5.8975,23.8462,-5.3848,-14.1025,1.7949,-15.6411,53.5898,19.7437,-2.3076,-1.7949,
-12.5642,4.3591,22.8206,49.9998,-8.4617,16.1541,-8.9744,-17.1794,2.3079,-16.6667,52.051,21.282,-14.1028,-2.3079,
0.51294,15.3845,27.1794,45.1282,-2.5642,16.4104,-3.0769,-14.8718,-0.51294,-14.8718,47.6921,17.4358,-11.7952,-3.5896,
-4.1028,17.4358,31.282,46.6667,-1.5388,13.8459,-1.0256,-12.8206,-7.1794,-11.282,48.718,17.9485,1.0256,-1.5388,
-8.4617,17.6921,32.5642,48.4617,-6.9231,8.9744,-9.4871,-10.5129,-4.8718,-8.4617,45.3845,22.8206,-2.3079,2.3079,
-0.25635,22.3076,31.0254,44.8716,0.25635,11.0254,-11.5386,-14.6152,-4.3589,-10.5127,37.6924,27.9487,-13.0771,-3.3335,
-14.6152,12.564,23.8462,37.6924,6.4102,14.1025,-6.4102,-22.3076,-19.3589,-18.7178,32.564,30,-12.0513,-8.9741,
-3.8459,23.8464,27.4358,34.6155,1.282,15.6409,-8.4617,-12.051,-22.3074,-12.051,38.718,28.9744,-2.3074,-1.282,
-0.76929,27.4358,31.5383,35.6409,-4.8718,17.1794,-12.5642,-10.0002,-7.3074,-6.9231,44.3591,37.1794,-4.3591,0.76929,
-11.0259,19.7437,23.8462,32.0513,-0.25635,17.1792,-6.9233,-18.2051,0.25635,-14.6157,42.3076,47.9487,-14.6157,-4.8721,
-5.3845,22.8206,14.1028,22.8206,2.8206,11.0256,-2.8206,-20.7693,-14.7437,-16.1536,39.2307,46.9231,-14.1023,-7.9485,
-10,20.7695,16.6665,24.3589,4.8721,3.3335,-3.8462,-20.2563,-11.5386,-3.8462,43.8462,50,-5.3848,-3.3335,
-6.1538,25.6411,19.4873,26.1538,0.5127,-1.5386,-11.2822,-17.436,3.4614,-8.2051,36.9229,51.7949,-12.3076,-0.5127,
-13.5896,22.8206,13.0769,26.4104,-7.9485,13.4614,-15.1282,-20.7693,2.8206,-21.282,26.4104,54.6155,-22.8206,-2.8206,
-17.6924,30.5127,13.0767,38.7178,-4.3589,28.4614,-10,-18.2051,4.3589,-12.564,35.6411,64.8716,-15.1284,-4.3589,
-8.4617,43.3333,13.5896,42.3079,-6.9231,42.3079,-18.2053,-17.1794,6.9231,-12.051,30.0002,59.2307,-18.718,-8.9744,
-16.1538,33.0771,9.4873,34.6152,-17.6924,34.1025,-26.9229,-21.2822,6.9229,-20.769,18.7178,51.0259,-28.4614,-6.9229,
-10.7695,34.8716,4.1025,27.1792,-18.9746,31.2817,-26.1538,-16.4102,3.5898,-16.9233,25.1279,49.7437,-24.6152,-3.5898,
-8.2056,39.4868,2.0513,24.6152,-13.8462,25.6406,-23.5898,-13.3335,8.7178,-8.7183,29.2305,58.4614,-22.0513,-2.0513,
-16.6665,38.7183,3.8462,26.9233,-13.0767,30,-23.8462,-17.6924,18.2051,-16.1538,21.2822,62.3076,-25.8975,-3.8462,
-7.9487,46.4102,7.9487,30,-11.0254,37.6924,-22.3076,-17.1797,20.769,-23.3335,21.7949,61.2822,-23.3335,-7.9487,
-10.2563,40.5127,6.1538,25.1279,-11.7949,30.769,-20,-15.3848,16.9229,-15.3848,23.0767,61.0254,-22.0513,-6.1538,
-7.436,40.7695,2.3076,13.0771,-13.5898,16.1538,-25.3848,-14.1025,5.8975,-15.1279,14.6152,49.4873,-22.3076,-2.3076,
-6.9233,40.769,3.8462,7.4355,-13.0771,13.5894,-28.9746,-18.2051,5.8975,-21.7949,12.0513,41.7949,-20.7695,-3.8462,
-13.8462,40.5132,4.1025,13.8462,-11.7949,18.9746,-27.1792,-19.4868,19.4873,-18.9741,15.8975,52.8208,-24.1025,-4.1025,
-7.1799,46.1536,3.0769,11.282,-9.7439,8.7175,-24.6155,-16.9231,22.5637,-16.4104,17.4358,57.4358,-22.5642,-3.0769,
-9.7437,47.1792,7.1792,3.0767,-7.6924,0,-24.1025,-16.4102,20,-13.8462,16.9229,49.2305,-15.8975,0,
-6.1538,62.0513,12.8208,1.5386,-6.6665,6.667,-25.6411,-12.8203,17.9487,-10.769,9.7437,44.1025,-20.5127,-1.5386,
-6.4102,69.4873,10.5127,5.3848,-10,14.1025,-26.4102,-12.564,16.1538,-14.6152,4.3589,46.4102,-25.3848,-4.3589,
-15.3848,66.6665,6.1538,8.7178,-13.8462,12.3076,-29.231,-16.4102,12.3076,-18.4614,4.6152,52.3076,-26.6665,-4.6152,
-4.3589,72.0513,11.0254,12.564,-9.4873,13.0767,-27.436,-17.1797,11.0254,-14.1025,2.3076,59.7437,-24.8716,-2.3076,
-2.0515,72.3074,15.8972,10.7693,-4.6155,17.9485,-21.5388,-11.7952,10.2561,-11.282,-1.0256,56.9231,-20.0002,1.0256,
0,75.8975,14.3589,3.0771,-1.5386,17.436,-20.5127,-6.1538,5.1284,-16.9229,0,45.1284,-22.0513,-0.51269,
-0.76929,71.0256,12.051,0.76929,-1.282,16.6667,-22.8206,-11.5383,2.3079,-20.2566,0.76929,43.8459,-26.4104,-4.3591,
-2.0513,71.2822,13.8462,2.0513,-0.5127,16.9229,-20.5127,-10.2563,6.6665,-10.2563,0,55.8975,-19.4873,0,
7.9487,77.6924,14.1025,-5.8975,-2.3076,8.4614,-21.7949,-8.9746,8.9741,-4.3589,-2.8208,57.6924,-16.667,2.3076,
0.25635,66.9233,12.5645,-2.8203,-0.25635,11.0259,-22.3076,-16.6665,14.1025,-7.4355,0.25635,52.5645,-22.3076,-2.8203,
-5.6409,63.5896,8.2053,-1.0256,2.0515,9.7434,-22.051,-20.5129,13.8464,-15.3845,1.0256,46.6667,-32.3079,-10.7693,
3.0769,66.1541,9.7439,-10.2561,6.1541,-3.0769,-16.9231,-15.3845,17.4358,-12.8206,8.718,50.7693,-27.1794,-6.6667,
3.0769,55.3845,12.8206,-20.0002,7.6921,-11.7952,-14.3591,-13.3333,25.1282,-6.1541,17.9485,51.282,-13.3333,-3.0769,
8.9746,51.5386,11.5386,-17.6924,5.3848,-6.4102,-20.2563,-12.0513,24.3589,-7.9487,17.6924,44.3589,-14.6152,-5.3848,
0,45.6411,9.7437,-12.8203,2.0513,0,-24.6152,-16.9229,18.9746,-13.333,8.7183,46.1538,-29.6152,-9.2305,
0,50.7695,18.4614,-8.7178,6.1538,0,-14.3589,-15.8975,17.9487,-10.2563,2.5645,48.7183,-31.2817,-8.2051,
1.5386,48.2051,22.0513,-9.7437,4.6152,0,-10.769,-16.9229,9.7437,-15.3848,0,40,-22.564,-12.8203,
-6.1541,42.5642,14.3591,-3.0769,3.5896,11.7947,-13.3333,-17.4358,9.7434,-17.9485,3.0769,46.1541,-24.6155,-11.282,
0,46.1538,3.5894,-2.5645,3.0767,14.3589,-20,-15.8975,9.2305,-18.4619,0,52.8203,-31.2822,-11.2822,
-2.564,42.564,5.1279,-3.0771,3.0767,16.9229,-18.9746,-10.7695,7.6924,-13.3335,2.564,53.333,-23.5898,-8.2051,
-4.6155,44.6155,4.1028,-7.1794,4.6155,16.9231,-15.8972,-6.6667,4.6155,-9.2307,4.1028,54.3591,-20.5129,-4.1028,
3.5898,48.7183,0,-13.333,8.7183,11.2822,-15.8975,-8.2051,2.5645,-5.1279,0,57.436,-24.6152,-2.564,
-5.1282,37.4358,3.0769,-9.7434,6.1541,14.3591,-16.9231,-14.3586,8.2053,-6.1536,4.1028,62.5642,-23.5896,-3.0769,
-3.8462,36.1538,5.3843,-3.8462,3.8462,22.3076,-14.1025,-15.1284,12.564,-13.5898,11.5386,62.8203,-27.436,-9.4873,
-3.0769,38.4617,1.0256,-1.0256,9.2307,30.2561,-7.6921,-15.3845,11.282,-14.3591,11.7947,59.9998,-29.7439,-10.7693,
-7.9487,41.2817,-2.3076,2.3076,4.3589,43.333,-11.0259,-14.6157,5.3843,-14.6157,3.8462,54.1025,-24.8721,-8.9746,
-3.3335,47.436,2.8203,9.4873,-0.25635,56.6665,-14.6152,-13.5898,3.8462,-17.6924,0.25635,52.0513,-21.7949,-9.4873,
1.0256,46.1536,9.7434,9.2307,12.8206,61.0256,-5.1282,-13.3333,-3.0769,-14.3591,-1.0256,45.6409,-25.1282,-7.6926,
11.5383,53.0769,11.0256,1.282,18.718,54.1028,-1.282,-13.5896,-18.0769,-11.5383,-7.4358,32.0515,-31.0256,-11.5383,
2.0513,52.3081,12.8208,11.2822,11.2822,60,-2.0513,-21.0254,-20,-22.564,-12.3076,24.1025,-34.8716,-22.0513,
-7.6921,51.282,13.3333,23.0769,16.4104,75,2.5642,-26.6667,-5,-35.8977,-12.3079,20.5129,-36.9231,-24.6155,
-0.51294,52.8206,5.6409,13.8459,22.5642,77.4358,-1.0256,-26.6667,0.51294,-33.3333,-9.2307,30.2561,-34.3591,-24.6155,
-0.76904,53.0771,8.9746,11.5386,25.3848,71.0259,-2.8203,-16.6665,0.76904,-18.3333,-1.2822,45.2561,-22.8203,-14.1025,
2.3079,56.1541,13.5896,12.0515,26.9231,60.7693,-2.3079,-14.1028,-12.0515,-16.6667,-9.4871,37.1794,-27.4358,-13.0769,
-0.76929,46.9231,12.5642,6.4104,25.8977,57.6921,0.76929,-23.8459,-14.1023,-21.7947,-11.0256,35.1282,-36.6667,-18.2048,
-6.6667,42.5642,13.3333,7.1794,21.5383,54.8718,1.5383,-22.0515,-1.5383,-15.3845,-2.0515,50.1282,-31.7947,-14.3591,
0.76904,54.1025,17.1797,14.1025,18.7178,45.8975,-3.3335,-8.4614,-0.76904,-11.5386,-2.3076,36.1538,-23.3335,-7.436,
0.25635,56.6665,23.8462,21.2822,22.3076,49.4873,-0.25635,-5.3848,-1.2822,-6.9229,-1.7949,29.4873,-12.0513,-2.3076,
-1.5383,54.3591,19.4871,12.8206,16.4104,43.0769,-3.5896,-16.4104,-3.5896,-10.7693,1.5383,41.0256,-11.282,-10.2566,
-11.5381,44.8721,11.5386,5.8975,3.8462,29.4873,-11.5381,-23.8462,-2.3076,-18.2051,2.3076,43.3335,-20.769,-19.7437,
-26.5381,38.4617,11.282,15.3845,1.0256,31.7952,-11.7947,-26.1536,9.7439,-16.4099,-1.0256,46.6667,-28.2048,-19.9998,
-14.8718,51.7947,16.4104,19.9998,7.1794,30.2566,-9.2307,-18.9744,9.2307,-10.2566,-7.1794,49.7434,-25.1282,-12.3079,
-6.4104,52.5642,22.8206,16.1536,8.9744,20.7693,-5.3845,-9.4871,-1.282,-1.7952,-3.8464,48.9744,-15.6409,1.282,
-10.5129,48.4617,21.282,12.051,4.8718,17.6921,-3.3333,-13.0769,-4.3591,-1.282,0.76929,46.4104,-15.1282,-0.76929,
-9.7437,50.2563,20,12.8203,12.8203,26.6665,-0.5127,-18.9746,0.5127,-4.1025,-3.0771,46.6665,-15.3848,-6.6665,
-15.3845,45.6409,17.9485,10.7693,11.282,24.1023,-1.5383,-18.4617,1.5383,-5.1282,-8.2053,45.6409,-17.4358,-3.5896,
-5.6414,50.7693,21.0256,12.3074,1.5383,16.4099,-2.0515,-12.3079,0.51294,-3.5901,-1.5383,45.1282,-20.0002,-0.51294,
-7.1792,48.7183,22.5645,13.3335,-0.5127,17.436,-4.1025,-10.769,0,-3.5898,0,39.4873,-19.4868,0,
-8.4614,51.0254,19.2305,8.4614,3.3335,13.5898,-7.9487,-9.4873,-5.3848,-1.2822,-10,32.564,-14.1025,1.2822,
-3.0769,51.282,22.051,8.2048,3.0769,6.6667,-4.6155,-11.7952,-16.9231,-1.0256,-13.8464,32.3074,-7.6926,1.0256,
-10.2566,41.5383,25.1282,11.7947,5.1282,11.282,2.5642,-16.4104,-12.8206,-4.6155,-8.718,32.8206,-8.718,-2.5642,
-8.2051,45.1284,17.9487,2.564,6.1538,9.231,0,-15.3848,0,-10.2563,-5.6411,28.2051,-12.3076,-3.5898,
-7.6924,44.6152,16.4102,-4.6152,5.6411,3.0771,2.0513,-12.8203,-4.1025,-6.1538,-2.0513,33.3335,-7.6924,4.1025,
-7.949,38.2048,18.2048,-0.76929,5.3845,6.9231,9.9998,-15.6414,-17.6926,-4.8718,-12.0515,38.2048,-12.5642,0.76929,
-6.1538,32.8208,20,4.6152,9.231,12.3076,10.7695,-17.9487,-11.7949,-5.6411,-17.9487,37.436,-18.4614,-4.6152,
-12.564,27.9487,22.8208,1.2822,5.8975,0.25635,2.8208,-16.6665,-6.9229,-1.2817,-13.5898,34.6152,-11.0254,-0.25635,
-2.3074,37.1794,27.949,-0.76929,4.3591,-5.8972,4.3591,-8.4612,-14.1023,0.76929,-11.5383,28.4617,-5.8972,8.9744,
-12.051,25.8977,22.3079,-1.282,4.3591,1.282,11.0256,-17.1794,-16.1536,-11.5383,-15.6409,20.2566,-17.6921,1.282,
-21.7952,21.7947,20.2561,2.8206,8.4612,7.4358,13.0769,-25.385,-2.8206,-15.1282,-12.5642,26.4099,-15.6414,-8.4617,
-20.2561,20.7693,15.1282,0.76929,8.9744,-0.76929,5.385,-28.4612,4.8718,-8.9744,-10.5125,31.0256,-7.4358,-8.4612,
-19.4873,14.3589,15.3848,0,8.7183,-2.0513,5.1284,-23.5898,6.1538,0,-7.1792,27.1797,-4.1025,-2.564,
-5.1282,26.1541,20.0002,1.5383,4.6155,-1.5383,9.2307,-15.8972,-3.5896,-2.5642,-5.6409,16.4104,-6.6667,2.0515,
-8.2053,27.1794,20.0002,5.1282,-0.51294,0.51294,8.2053,-16.9231,-5.1282,-8.2053,-9.7434,17.949,-9.7434,3.0769,
-15.1282,24.3586,21.282,9.9998,-2.3079,5.3845,5.8972,-17.1794,0.76929,-6.4104,-10.5129,25.3845,-9.4871,-0.76929,
-4.1025,27.1797,27.1797,11.7949,2.0513,6.667,7.6924,-14.8716,-4.6152,-7.6919,-2.564,23.5898,-9.2305,-2.0513,
-15.6414,17.6921,23.8459,7.9485,3.8459,1.282,9.4871,-18.718,-13.5901,-13.0769,-5.3845,18.718,-10.0002,-1.282,
-9.7434,26.1541,25.1282,10.2566,7.6926,-5.6409,13.8464,-12.3074,-7.6921,-3.0769,-6.6667,24.1028,-4.615,3.0769,
-3.5896,26.6667,26.6667,15.8972,4.6155,-8.718,13.3333,-10.7693,-2.051,1.5383,-5.6409,28.2053,-6.1541,-1.5383,
-9.2307,24.1028,26.6667,22.0515,3.5896,2.5642,10.2566,-13.3333,-5.1282,-5.1282,-7.1794,25.1282,-10.7693,-2.5642,
-8.718,25.1282,22.5642,16.9231,3.5896,6.1541,6.6667,-17.4358,-14.8718,-15.3845,-15.3845,15.3845,-8.718,-3.5896,
-14.1025,18.2051,24.8721,21.7949,1.7949,6.4106,10.5132,-22.3076,-13.5894,-15.1279,-12.564,23.8462,-2.3076,-1.7949,
-8.4614,24.8716,34.6152,35.1284,0.76904,12.0513,16.1538,-18.7178,-7.9487,-11.0254,-6.9229,34.6152,-11.0254,-0.76904,
-6.6667,27.6926,38.9744,38.4617,1.0256,10.2566,15.8977,-12.8206,-7.6921,-9.2307,-8.2048,27.6926,-12.3074,-1.0256,
-16.1538,18.2051,32.5645,35.1284,-0.25635,0.25635,8.9746,-16.1538,-11.5381,-10.5127,-10,26.4102,-4.8716,3.3335,
-8.9741,16.1538,29.4873,33.5898,1.7949,-1.7949,11.5386,-20.2563,-14.6152,-10.5127,-7.9487,40.2563,-6.4102,3.8462,
-12.0513,14.6157,33.0771,35.1284,4.8721,0.25635,20.7695,-19.2305,-13.0767,-5.8975,-4.8716,45.3848,-7.4355,-0.25635,
-3.3333,23.8459,36.1541,40.7693,8.9744,-1.7947,22.3079,-10.5129,-6.9231,-1.7947,-1.7947,41.282,-2.8206,1.7947,
-1.282,18.718,31.5388,42.3079,5.3845,-5.8972,15.6414,-15.1282,-6.4099,-9.4871,-2.8206,37.1794,-4.8718,1.282,
-11.2822,11.7949,29.231,38.9741,1.0254,-5.1284,15.8975,-20,-3.5898,-13.3335,0,37.436,-4.6152,0,
-3.0767,19.4873,27.1797,34.8721,0,-5.6406,13.8462,-11.2817,-4.6152,-5.6406,-1.5381,37.9487,0,2.0513,
-10.7693,10.7693,23.5896,30.7693,-0.51294,-8.2053,7.6921,-9.2307,-10.7693,0.51294,-10.2566,37.9485,-3.5896,2.5642,
-10.5127,13.0771,28.9741,35.1284,6.4102,-6.4102,14.1025,-11.0259,-5.8975,-1.7949,-4.3589,41.7949,-0.76904,0.76904,
-4.8718,12.5642,32.0515,37.1794,0.76929,-8.9744,16.1541,-16.6667,-4.8718,-13.0769,2.3079,37.1794,-0.76929,-2.3079,
-7.1797,10.2563,34.3589,41.0254,0,-7.1797,16.4102,-12.3076,-10.7695,-7.6924,0,32.8203,-2.0513,3.0767,
-3.0769,16.4104,30.7693,42.5642,3.5896,-8.2053,16.9231,-9.2307,-20.5129,-4.1023,-5.1282,26.1541,-5.1282,3.0769,
-8.4614,7.4355,27.9487,40.2563,0.25635,-7.9487,18.2051,-15.6411,-20.7695,-12.0513,0.76904,26.4102,-2.8208,-0.25635,
-8.2051,0,25.6411,31.7949,0,-8.2051,12.8208,-16.4102,-20.5127,-16.4102,0.5127,27.1797,-0.51269,1.5386,
-1.5386,-0.5127,24.6152,29.7437,8.2051,-9.7437,12.3076,-12.3076,-24.1025,-12.8203,-2.564,24.6152,0.51269,4.1025,
-13.3335,-7.1797,24.6152,32.3076,6.6665,-9.7437,20.5127,-15.8975,-25.1284,-12.8208,0,23.0767,2.0513,0,
-5.3845,-3.3333,29.4871,34.6155,6.4104,-8.9744,25.8972,-15.6409,-19.7434,-14.6155,3.3333,27.4358,3.3333,-3.8459,
-6.6667,-3.0769,30.7693,43.0769,4.1028,-10.2561,22.0515,-15.8972,-10.2561,-12.8206,2.5642,36.9231,1.0256,-1.0256,
-15.8975,0,25.1279,50.769,-10.7695,-14.3589,14.3589,-19.4873,-11.7949,-14.3589,0,36.4102,0.5127,1.5381,
-7.6921,6.6667,24.6155,56.4104,-8.2048,-14.8713,15.8977,-19.4871,-14.8713,-14.3586,1.0256,32.8206,2.5642,-1.0256,
-11.282,3.0769,27.1794,59.9998,4.1023,-11.7952,24.1023,-21.0256,-11.7952,-15.8977,4.1023,33.3333,-3.0769,-4.6155,
-5.1279,9.7437,30.7695,57.436,5.1284,-11.2817,28.7183,-20,-19.4873,-20.5127,4.1025,29.231,-5.6411,-4.1025,
-4.8718,4.3591,29.9998,49.4871,-0.76929,-18.718,24.3591,-22.3079,-27.949,-19.7439,0.76929,19.2307,1.7947,-6.4104,
-6.1538,2.0513,28.7178,51.7949,-2.0513,-29.2305,21.0259,-19.4873,-20.5127,-12.3076,5.6411,9.7437,5.6411,-7.1792,
1.282,12.5642,33.5896,59.7434,-1.282,-26.4104,21.282,-16.1541,-21.7947,-13.0769,5.3845,11.0256,-1.282,-7.4358,
-7.6921,7.6921,39.4871,69.2307,2.5642,-11.7947,27.1794,-18.4617,-24.6155,-14.8718,1.0256,26.0256,-1.0256,-4.6155,
-3.5896,10.2566,37.4358,68.718,4.6155,-11.282,29.7439,-17.9485,-25.1282,-15.8972,-0.51294,26.1541,0.51294,-1.5383,
-1.5386,10.769,33.3335,58.9741,1.5386,-16.9233,27.1797,-19.4873,-28.2051,-18.9746,3.5898,11.2822,-2.564,-5.6411,
-9.2307,6.1541,33.3333,55.8977,1.0256,-15.3845,28.2053,-23.5896,-24.1023,-18.9744,7.6926,14.3591,-1.0256,-11.282,
-3.0771,5.6411,30.2563,46.1538,0,-26.1538,25.6411,-27.1797,-24.6152,-19.4873,7.6924,12.8203,0,-12.8203,
-3.0769,-1.5383,26.1541,36.4104,1.5383,-36.9231,24.6155,-24.1023,-26.6667,-13.3333,15.8977,7.6921,2.0515,-7.6921,
-1.0256,-1.5388,19.4871,33.3333,1.0256,-38.9744,21.5383,-18.4617,-21.5388,-10.7693,19.9998,10.7693,2.051,-8.2053,
-1.2817,0.25635,16.1538,35.1284,-0.25635,-30.5127,21.2822,-18.2051,-10,-12.0513,22.3076,19.7437,2.3076,-5.3843,
-10.2563,-0.5127,14.3589,38.4614,0.5127,-19.4873,23.5898,-22.564,-12.3076,-12.3076,18.9741,24.6152,-2.564,2.0513,
-4.1025,6.6665,14.8716,41.5381,2.0513,-15.3848,21.5381,-23.0771,-23.5898,-13.8462,9.7437,26.6665,-3.0771,-2.0513,
-8.718,4.1023,19.9998,47.6921,-1.0256,-11.7952,23.5896,-22.0515,-30.2566,-14.8718,5.6409,33.8459,1.0256,-5.1282,
-4.615,10.2566,26.1541,51.2825,1.0256,-8.2048,33.3337,-19.4871,-39.9998,-16.9226,5.6414,32.8206,-1.5383,-1.0256,
-3.5898,11.2817,22.564,47.1792,4.1025,-10.2563,32.8203,-20.5132,-50.2563,-20.5132,2.0513,17.8206,-5.6411,-2.0513,
-5.3848,12.0513,23.8462,54.1025,-5.3848,-8.4614,22.3076,-14.6152,-40.769,-13.5898,5.8975,6.4102,-2.8203,2.8203,
0.5127,15.3848,19.4873,52.3076,-20,-15.8975,11.7949,-15.3848,-32.3076,-14.3589,6.1538,12.8203,-8.7178,-0.5127,
-2.3079,15.6409,19.7434,55.6409,-5,-2.8206,25.3845,-15.1282,-23.8459,-13.0769,10.0002,24.8718,-2.3079,2.3079,
-10.7693,12.3074,12.3074,47.6921,2.5642,-1.0256,21.5383,-21.5388,-36.4104,-23.0769,1.0256,16.4099,-4.1028,-5.6414,
-3.5901,15.8972,18.9744,49.2307,2.5642,-7.1794,22.051,-19.4875,-33.3333,-18.9744,7.6921,13.8459,-3.0769,-2.5642,
-6.9229,7.9487,20.769,49.4873,-0.25635,-13.0767,30,-23.3335,-28.9741,-17.6924,10,6.4102,-5.8975,0.25635,
2.564,16.9233,22.564,50.7695,3.5898,-13.3335,32.8208,-18.4614,-43.0767,-17.9487,0,-3.0767,-3.0767,0,
0.51294,17.9485,29.7434,49.7434,4.6155,-15.8977,33.3333,-13.3333,-57.436,-16.9231,-5.6409,-3.5896,-0.51294,1.5383,
-0.76929,15.1282,28.9744,44.8718,3.8459,-16.6667,37.1794,-16.1541,-51.0256,-22.3079,3.8459,-3.8459,-3.3333,0.76929,
2.3076,15.1284,17.6924,41.7949,0.25635,-11.0254,37.1797,-18.2051,-45.8975,-23.8462,7.9487,-2.3076,-3.333,-0.25635,
-4.1025,14.8721,15.3848,42.564,0.5127,-4.6152,32.3076,-10.2563,-53.8462,-13.8462,-0.51269,8.2051,-0.51269,8.7178,
-2.3074,18.2053,14.1028,38.718,1.282,-1.282,24.8718,-11.0256,-57.6921,-16.1536,-3.3333,5.8977,-5.3845,5.3845,
-8.7183,9.2305,10.769,38.9741,-2.0513,3.5898,23.5898,-23.0771,-47.6924,-26.1538,2.564,2.0513,-10.2563,-5.1284,
-3.8462,12.564,16.1538,41.2817,0.25635,-0.25635,27.436,-19.7437,-51.5386,-22.8208,-0.76953,2.8203,-6.4102,1.7949,
8.718,23.5896,21.5383,36.9231,1.0256,-7.6921,21.5383,-10.7693,-61.5383,-13.8459,-5.1282,-3.0769,-1.0256,9.2307,
-5.1284,12.8203,18.9741,36.4102,0.5127,-4.1025,20,-15.8975,-47.6924,-14.8721,2.564,-2.564,-0.5127,2.0513,
-7.436,19.7437,16.6665,37.6924,1.7949,-6.9233,24.3589,-18.7183,-38.2051,-20.2563,5.3848,1.7949,-2.8208,-1.7949,
-7.6921,34.7437,15.3845,31.282,-0.51294,-12.8206,19.4871,-18.9744,-42.5642,-18.9744,1.5383,0.51294,-0.51294,1.0256,
-4.1025,49.7437,14.3589,28.7178,0.5127,-6.6665,15.3848,-15.8975,-39.4873,-13.8462,1.0259,-3.5898,5.6411,-0.51269,
0.51294,64.7437,13.3333,31.7947,0.51294,-5.1282,12.8206,-13.8464,-38.9744,-14.3591,-0.51294,-6.6667,1.0256,-1.0256,
-8.9741,67.9487,17.1797,42.3076,-2.3076,-4.8716,11.0259,-12.564,-35.1279,-12.0513,3.3335,-1.7949,1.7949,4.3589,
-3.5896,76.9231,19.4871,43.0769,-1.5383,-6.1541,10.7693,-10.2566,-34.8718,-12.3079,2.051,-5.1282,1.5383,3.0769,
0,74.8721,23.5898,42.5645,2.5645,-2.564,20.5132,-10.2563,-34.8716,-12.3076,0,-1.5381,0,3.5898,
-10.769,62.564,24.1025,47.6924,-10.769,-3.5898,17.436,-21.0259,-35.8975,-16.4102,0,9.7437,0,0,
-6.4104,67.4358,26.4104,56.1541,-14.6155,0.76929,12.5642,-24.8718,-36.6667,-20.7693,1.282,9.4871,-0.76929,-4.8718,
-8.9746,63.8462,28.9741,58.2051,0.38452,8.4614,24.8716,-21.7949,-40.2563,-23.8462,-3.3335,3.8462,-4.8721,-4.8721,
-3.5898,65.1284,30.7695,58.4614,15.3845,2.0513,33.3335,-18.9741,-44.6152,-26.1538,-8.7178,6.1538,-2.0513,-5.6411,
-1.0256,65.1282,32.3079,61.5383,15.8972,-9.2307,33.3333,-21.5383,-45.1282,-25.1282,-7.1794,6.1541,1.0256,-6.1541,
-2.3076,63.3335,34.1025,59.7437,18.7178,-11.0254,40.2563,-18.2051,-44.3589,-21.7949,-4.8716,2.3076,-3.3335,3.8462,
0,55.8975,26.1543,47.1797,13.8462,-16.4102,32.8208,-18.9741,-49.7432,-28.2051,-8.7178,0.51318,-9.7432,0,
-6.1536,45.1282,27.1794,46.6667,13.3333,-14.8718,29.2307,-18.4617,-48.2048,-23.5896,-2.5642,12.3079,2.5642,-3.0769,
-4.1025,47.6924,27.6924,42.564,17.436,-16.9229,33.8462,-17.9487,-58.4614,-18.9741,-6.6665,7.1797,1.5386,-1.5386,
0.76929,48.9744,24.3591,42.8206,19.2307,-17.6921,37.1794,-18.2048,-58.2051,-20.2561,-11.0256,1.282,-6.9231,-0.76929,
-3.3333,43.3333,26.4104,56.6667,16.1541,-10.5129,30.5129,-15.6409,-43.2051,-17.6921,-2.3079,12.5642,-0.76929,0.76929,
-0.51294,42.051,27.6921,60.5129,13.3333,-10.2566,21.5383,-17.4358,-40.5129,-20.0002,-1.0256,16.9231,0.51294,-2.5642,
-1.282,37.1794,27.4358,59.7434,20.2561,-14.6155,32.051,-19.7439,-45.8977,-20.7693,-2.3079,18.2048,1.282,-1.7952,
-0.25635,33.5898,13.0771,50,17.6924,-25.3848,32.0513,-23.3335,-53.0767,-25.3848,-8.4614,4.3589,0.25635,-7.436,
3.5898,34.3589,9.7437,50.769,15.3848,-20.5127,27.1797,-16.9233,-47.6924,-26.1538,-5.1284,-4.1025,2.564,-2.564,
-9.4871,24.8718,14.6155,59.2307,14.6155,-9.9998,31.5388,-17.1794,-42.3074,-27.9485,-0.76929,6.9231,0.76929,-2.3074,
-1.7947,31.5383,11.5383,58.2053,19.7434,-9.9998,37.6921,-19.2307,-40.7693,-23.8459,-1.282,18.2053,1.282,-5.3845,
-3.3335,25.8975,3.3335,44.8716,19.231,-23.8462,25.8975,-20.2563,-41.7949,-19.7437,-9.4873,9.4873,3.3335,-5.3848,
-4.8718,23.3333,6.9231,44.8718,16.6667,-24.3591,19.2307,-15.6414,-42.8206,-19.2307,-10.0002,8.4612,2.8206,-2.8206,
-3.3333,22.3074,10.5129,47.9485,15.1282,-15.6409,26.9231,-18.2053,-47.4358,-24.3591,-7.4358,16.6667,3.3333,-4.8718,
-12.5642,14.6155,6.4104,44.8718,16.6667,-13.5896,28.9744,-24.8718,-43.8459,-27.9485,-6.4104,12.0515,8.4617,-8.4617,
-3.0771,23.0771,8.7178,52.3076,20.5127,-15.3848,21.0254,-20,-41.5386,-24.6152,-7.1797,3.0771,6.6665,-6.6665,
-1.0256,23.5896,14.3591,63.0769,17.4358,-9.7434,21.0256,-16.9231,-51.7947,-19.4871,-12.3079,6.6667,1.0256,-3.0769,
-2.8206,22.8206,11.5383,59.7434,13.5896,-11.0256,25.3845,-17.6926,-61.2822,-22.8206,-19.2307,5.8972,2.8206,-5.3845,
1.282,24.8718,4.8718,53.5896,12.5642,-16.6667,22.3079,-17.6921,-55.6409,-29.9998,-21.282,-1.282,4.3591,-8.4617,
-2.3076,25.3843,6.9229,63.8462,15.6411,-5.3848,20.769,-15.6411,-40.6409,-20.2563,-13.0771,9.4873,1.7949,-1.7949,
0.76929,27.9485,1.7947,56.1536,14.1023,-13.0769,14.6155,-15.6414,-45.3845,-19.7439,-13.5901,7.4358,-0.76929,-2.3079,
0,20,0,45.1279,13.8462,-23.5898,17.9487,-13.3335,-53.8464,-23.5898,-9.231,1.0254,8.7178,-1.5386,
-2.5645,14.3589,0,45.1279,13.333,-20.5132,23.0767,-11.7949,-49.7439,-18.9746,-12.8208,5.1279,6.1538,0,
5.8975,20.769,0.25635,41.2817,12.564,-18.7183,20.2563,-12.0513,-47.949,-16.1538,-23.8462,11.5381,-0.25635,-0.25635,
-4.3586,14.6155,1.282,37.1794,13.5901,-20.2561,19.7439,-14.6155,-55.1282,-20.2561,-23.8459,11.0256,2.8206,-1.282,
-4.1023,13.3333,2.5642,43.0769,16.4104,-16.9231,21.0256,-14.3591,-56.4102,-19.9998,-19.9998,12.3079,3.5896,-2.5642,
-2.3076,14.1025,3.8462,51.0254,15.1279,-11.0259,19.7437,-16.667,-46.4102,-19.7437,-25.8975,15.1279,2.3076,-6.9233,
-2.8206,19.7439,9.4871,56.6667,18.718,-3.3333,26.4104,-13.5896,-42.8206,-18.718,-28.4612,18.718,2.8206,-4.3586,
2.8203,22.8203,7.436,55.1284,13.0771,-7.436,22.3076,-13.0771,-57.6924,-22.8203,-33.0771,13.5898,-2.8203,-5.8975,
-3.3335,18.2051,8.4614,61.2822,7.436,-9.4873,17.1797,-16.6665,-50.5127,-22.8203,-30.5127,8.9746,3.3335,-3.3335,
-0.51318,21.0254,8.7178,64.1025,13.8462,-9.231,20.5127,-17.9487,-42.0513,-29.7437,-29.7437,2.564,0,0,
4.3589,12.0513,2.3076,49.1025,17.1797,-10.5127,20.2563,-15.1279,-57.0513,-32.564,-39.7437,1.7949,-13.5898,-1.7949,
2.5642,7.1794,4.6155,41.5383,8.2048,-6.6667,15.3845,-9.7439,-64.6155,-20.0002,-35.3845,6.1536,-3.0769,-2.5642,
1.0256,11.7947,2.5642,48.2053,-1.0256,-9.2307,7.6921,-16.4104,-49.6155,-25.1282,-23.0769,4.6155,7.1794,-10.2566,
-1.7947,10.0002,2.8206,59.7434,13.9744,-3.3333,16.6667,-16.1541,-34.6155,-27.4358,-13.0769,19.6155,0.76929,-0.76929,
2.5642,8.2048,-0.51294,46.6667,17.4358,-5.6409,15.3845,-12.8206,-42.5642,-24.6155,-23.5896,24.6155,-12.3079,0.51294,
6.1541,7.6926,1.0256,37.949,5.1282,-12.8206,8.718,-11.282,-57.5642,-19.9998,-32.8206,9.6155,-1.0256,-6.6667,
-1.282,6.9231,2.3079,50.5129,1.282,-14.1023,10.5129,-9.4871,-45.8975,-20.7693,-27.4358,14.1028,11.0256,-4.3591,
1.2822,8.4614,2.3076,54.6152,1.7949,-14.1025,14.1025,-13.5898,-30.8975,-26.4102,-21.2822,25.8975,-1.2822,-4.3589,
-1.5386,1.5386,8.7178,51.2822,9.231,-0.5127,19.4873,-14.3589,-18.9746,-17.436,-19.4873,30.2563,-1.0259,0.5127,
-1.0256,-0.51294,1.0256,38.9744,7.6921,-6.1541,5.6409,-10.2566,-33.9746,-16.9231,-34.4873,16.4104,3.5896,0.51294,
8.7178,4.6152,0,37.4355,4.1025,-17.9487,3.0767,-6.667,-47.1797,-21.5386,-35.3848,10.769,0,-2.5645,
2.8206,0.76929,8.9744,46.4104,8.9744,-14.1023,15.6409,-12.051,-32.1797,-19.7434,-20.3848,17.6926,-3.8459,-0.76929,
5.1282,0.51294,1.5383,39.9998,11.282,-18.4617,8.2048,-12.3079,-30.2566,-16.4104,-25.6414,15.3845,-0.51294,-0.51294,
6.9233,-0.25635,-3.8462,35.6411,7.9487,-22.3076,0.25635,-5.3848,-41.7949,-15.6411,-33.0767,15.6411,7.436,1.7949,
5.3845,1.7952,0.25659,36.1541,-1.282,-19.7434,0.76929,-7.4358,-47.4358,-22.3079,-32.5642,10.5129,3.3333,-0.25659,
10.5129,4.3591,2.8206,42.3079,-2.8206,-15.1282,2.8206,-5.3845,-45.3845,-20.7693,-29.4871,3.3333,-0.76929,0.76929,
3.8459,-1.7952,1.282,50.5129,-1.282,-12.5642,2.8206,-2.3079,-33.0769,-15.1282,-28.4617,13.0769,1.282,3.8459,
7.9487,-1.7949,5.3848,51.0259,-1.7949,-13.5898,2.8208,-3.8462,-27.9487,-16.6665,-26.4102,28.0769,1.7949,1.7949,
8.2053,-6.6667,10.2566,49.7434,-2.5642,-13.8459,3.0769,-3.5896,-29.2307,-13.8459,-24.6155,36.4104,4.1028,2.5642,
10,-4.8721,9.4868,49.4868,-2.8208,-13.5898,2.3076,-1.7949,-30.5129,-8.4614,-30.5129,32.0513,1.7949,7.9487,
17.1797,-2.3076,9.4873,50,2.3076,-14.1025,6.4102,-2.8203,-21.2822,-11.5386,-31.5386,34.6152,-2.8203,7.9487,
3.5898,-16.4102,6.6665,47.1792,4.6152,-20,2.0513,-9.231,-8.7183,-14.3589,-27.1797,42.0513,1.5386,-1.5386,
10.5129,-10.5129,7.4358,46.9231,12.051,-21.282,-1.282,-3.3333,-0.76929,-6.4104,-14.1028,40.7693,16.5386,0.76929,
6.9231,-17.1794,3.3333,40.7693,5.8972,-27.4358,-3.3333,-3.8459,-4.3591,-8.4617,-8.4617,28.9744,7.9485,3.8459,
5.1279,-18.9746,4.1025,39.4873,-0.5127,-29.231,0,0,-4.6152,-4.6152,-17.436,26.6665,4.1025,8.2051,
13.3335,-14.3589,8.2051,42.0513,-0.51269,-25.6411,0,0,-7.6924,-7.1792,-30.7693,33.8462,19.1025,2.564,
1.2822,-21.7949,13.5898,51.5386,8.4614,-12.564,5.3848,-7.9487,-5.3848,-15.6411,-26.4102,47.9487,18.7178,-1.2822,
7.1794,-16.9231,9.7434,50.2566,8.2053,-12.8206,4.1028,-4.1028,-13.3333,-12.8206,-27.1794,44.6155,3.7178,5.1282,
17.949,-13.8459,7.6921,45.1282,-2.051,-18.4617,-1.5383,2.5642,-21.5383,-4.1023,-37.4358,38.4617,1.5383,12.3079,
5.8975,-21.7949,12.0513,47.9487,-2.8203,-8.9741,2.8203,-5.8975,-6.9229,-10.5127,-32.564,46.9233,12.0513,3.3335,
3.3333,-19.2307,12.5642,50.0002,4.8718,-1.282,7.9485,-13.5896,1.282,-17.6921,-24.8718,50.0002,-2.3079,-2.8206,
3.3335,-16.6665,7.9487,48.4614,7.436,-6.4102,7.436,-7.436,-13.718,-10,-36.6665,43.8462,-3.3335,7.436,
3.3335,-18.7178,4.8716,44.8716,2.3076,-16.6665,3.3335,-8.4614,-24.3589,-13.5898,-50.5129,40.2563,-1.7949,1.7949,
3.5898,-18.9741,17.9487,55.3848,3.0771,-3.5898,7.6924,-11.7949,-9.3589,-13.8462,-36.9229,54.8721,0.5127,-1.0254,
-2.0513,-20.5127,22.0513,55.8975,-9.2305,2.5645,4.1025,-10.2563,-6.6665,-16.9229,-30.2563,51.2822,2.0513,2.5645,
10.769,-12.3076,23.0771,53.3335,-11.2822,-1.5386,1.5386,-3.0771,-21.6665,-18.4614,-33.3335,41.0254,6.1538,6.6665,
2.564,-25.1284,21.5386,51.7949,-14.8716,-1.5386,1.5386,-10.2563,-6.6665,-14.8716,-33.8462,49.231,3.0771,4.1025,
1.7947,-26.9231,19.7434,51.0256,-19.7434,2.3079,-0.76929,-11.0256,8.3335,-13.0769,-27.949,63.3333,-6.4104,0.76929,
6.667,-25.1279,21.5386,45.6411,-15.897,-6.1538,1.5386,-5.1279,0,-13.333,-31.2817,57.9487,0,2.0518,
5.1282,-32.8206,31.7952,40.5129,-7.6921,-18.9744,11.282,-5.1282,-15,-9.2307,-36.9231,49.2307,14.3591,9.2307,
7.6921,-42.0513,30.2566,30.7693,-2.0515,-29.2307,9.2307,-11.7947,-11.282,-11.282,-33.8459,49.2307,5.6409,2.0515,
-4.8716,-57.0513,24.3589,31.0254,12.564,-28.4614,10,-14.1025,3.718,-11.5386,-18.8459,62.3076,3.3335,-3.3335,
-7.1792,-72.0513,15.3848,27.6924,25.1284,-43.4614,4.6152,-18.9741,18.718,-15.8975,-22.564,58.4614,6.1538,-4.6152,
6.6667,-87.0513,12.3079,17.949,27.1794,-58.4614,1.0256,-18.4612,3.718,-16.9231,-33.8459,43.4614,7.6926,-1.0256,
0,-88.718,25.1279,18.4614,26.1538,-61.5386,10.769,-17.436,-11.282,-15.8975,-24.1025,46.6665,6.6665,0,
-2.5642,-87.6924,37.9485,23.0769,41.1538,-63.5898,19.4871,-20.5129,3.718,-17.949,-16.4104,61.6665,2.5642,-8.2053,
-4.3589,-97.1794,33.5898,18.2051,56.1538,-75.1282,12.564,-19.7437,18.718,-12.564,-22.8203,63.8462,4.3589,-7.436,
-3.5898,-94.3591,31.2817,15.897,54.8716,-79.4873,2.0513,-17.436,28.7178,-11.2822,-23.0771,56.4102,7.6919,-2.0513,
-6.1541,-92.8206,46.2817,11.7947,41.0256,-88.2053,5.1282,-20.5129,13.7178,-22.0515,-21.5383,43.0769,4.6155,-3.0769,
-4.8718,-96.6665,61.2817,8.9744,56.0256,-93.0767,14.6155,-12.5637,-1.2822,-11.5383,-20.7693,39.2307,15.6414,4.8718,
-4.8716,-100.2563,57.1797,1.7949,71.0256,-96.6665,4.8721,-19.2305,9.4873,-9.4873,-24.8716,44.3589,10.5127,-1.7949,
-12.564,-100.2566,58.2051,5.8975,86.0256,-87.436,11.0254,-26.9233,24.4873,-14.6152,-13.0771,59.3589,6.9229,-5.8975,
-10.769,-93.8462,73.2051,2.0513,98.4614,-83.0769,18.4614,-18.9741,39.4873,-14.3589,-3.5898,71.2822,9.7437,-2.0513,
-3.3333,-87.4358,85.8977,-12.9487,88.4617,-94.6152,3.4614,-7.4358,24.4873,-6.9231,-18.5898,56.2822,13.0769,5.3845,
-8.2053,-85.1282,93.3333,-13.8464,77.9485,-91.2822,1.5383,-4.6155,25.6409,-1.5383,-30.2566,55.8972,25.6409,13.8459,
-6.9231,-85.3848,108.3333,-7.949,77.1794,-77.1797,12.5637,-10.5129,23.8459,-12.5642,-22.3079,69.9998,21.7947,6.9231,
-15.1282,-99.231,123.3333,-0.76929,82.3074,-62.1797,21.282,-15.6414,38.8459,-15.6414,-7.3079,84.9998,6.7947,0.76929,
-16.4104,-107.1794,136.9231,-4.1028,79.9998,-61.5386,16.4104,-10.7693,53.8459,-2.0515,1.5383,93.3333,-1.5383,11.7947,
-5.8972,-108.9741,128.4617,-19.1028,64.9998,-76.5386,1.4104,-3.8459,46.4104,1.282,-13.4617,78.3333,9.4875,18.718,
-11.7947,-115.3845,142.0515,-10.7693,54.8718,-70.769,0.51294,-1.0256,47.1794,-0.51294,-26.6667,81.5383,24.4875,18.9744,
-24.3591,-120.7693,154.1023,0.76929,45.8972,-58.718,-0.76929,-16.0256,54.1023,-15.5129,-33.0769,88.9744,9.4875,3.9744,
-18.4617,-107.1794,169.1023,15.7693,60.8972,-43.718,11.7947,-11.7952,69.1023,-14.3591,-18.9744,103.9744,-5.1282,5.1282,
-31.0256,-114.6152,163.3333,30.7693,64.3591,-32.051,3.3333,-16.1536,58.2053,-22.3074,-33.9744,99.7439,-3.3333,4.8718,
-27.6924,-117.4358,154.8721,16.4102,49.3591,-47.051,-3.5898,-16.9229,43.2053,-25.1279,-48.9744,84.7439,11.6667,3.5898,
-34.6155,-121.2822,162.8206,12.051,34.3591,-60.2566,-1.282,-17.6926,48.9744,-19.7439,-35.6414,81.282,9.4871,1.282,
-29.2307,-112.8206,167.1794,26.6667,49.3591,-51.7952,0.51294,-13.8464,63.9744,-17.949,-27.1794,95.3845,5.6409,-0.51294,
-24.6152,-114.3589,163.5898,41.6667,64.3591,-49.2305,1.5386,-15.3848,70.2563,-21.5386,-34.8716,98.4614,8.2051,-1.5386,
-32.8208,-115.3848,159.4873,50.769,60.5127,-45.6411,-0.5127,-17.436,66.6665,-21.5386,-33.8462,97.9487,0.5127,3.5898,
-20.2561,-100.3848,161.7952,62.8206,53.5901,-55.1282,-4.8718,-5.3845,62.8206,-7.4358,-32.5637,104.3591,4.8718,15.6414,
-28.9744,-102.8208,161.7947,77.8206,45.3845,-70.1282,-10.0002,-9.4875,62.8201,-4.8718,-37.6926,106.9231,4.8718,12.5637,
-26.6667,-94.3589,175.3845,92.8206,55.8977,-60.5127,-0.51294,-9.2307,77.8201,-9.2307,-26.1536,107.1794,0.51294,10.7693,
-19.4873,-85.1282,176.9233,107.8206,70.2563,-45.5127,-0.51269,-6.1538,70.2563,-17.436,-34.3589,100,0.5127,8.2051,
-32.3074,-84.6152,161.9233,122.8206,60.0002,-30.5127,-14.3591,-9.2307,55.2563,-21.5383,-49.3589,97.949,0.51294,-0.51294,
-25.8975,-69.6152,160.769,137.8206,54.6152,-15.5127,-14.6152,-2.3076,60.2563,-18.2051,-40.769,108.9746,-6.9229,2.3076,
-24.3589,-56.1538,163.8462,152.8206,57.1797,-0.5127,-17.1792,-3.3335,66.9233,-27.9487,-30.5127,109.4873,-21.9229,3.3335,
-17.436,-42.564,152.8203,167.8206,53.3335,14.4873,-29.231,-2.0513,54.8716,-30.2563,-44.6152,100,-24.1025,2.0513,
-21.5386,-28.2051,142.564,182.8206,45.1284,29.4873,-35.8975,0.5127,54.8716,-25.6411,-45.6411,103.5898,-14.8716,-0.5127,
-35.3845,-27.1794,148.718,197.8206,48.718,44.4873,-28.718,1.0256,69.8716,-25.1282,-33.3333,118.5898,-19.4871,-1.0256,
-28.7178,-26.6665,136.4102,212.8206,37.436,59.4873,-43.5898,-0.5127,61.5386,-29.2305,-48.3333,119.4873,-34.4871,0.5127,
-34.1028,-34.1028,121.4102,227.8206,22.436,74.4873,-58.5898,-1.282,46.5386,-26.4104,-63.3333,104.4873,-45.3845,1.282,
-36.9229,-30.769,116.9229,242.8206,7.436,89.4873,-60.5127,3.5898,50.2563,-18.9746,-53.8462,104.1025,-38.9746,-3.5898,
-31.2822,-25.6411,127.1797,257.8206,14.3589,104.4873,-53.3335,3.5898,65.2563,-24.6152,-38.8462,116.4102,-34.3589,-3.5898,
-37.1792,-30,116.667,272.8206,13.5898,119.4873,-60.769,0.25635,64.3589,-32.0513,-43.8462,114.6157,-34.1025,-0.25635,
-33.0769,-25.3845,104.8718,287.8206,7.4358,134.4873,-65.8972,3.3333,66.9231,-24.8718,-44.8718,116.1541,-36.1536,-3.3333,
-36.6667,-31.5383,109.4871,302.8206,0.25659,149.4873,-64.3591,5.8977,66.4104,-12.051,-44.8718,116.6667,-37.1794,-0.25659,
-36.1538,-40.2563,106.9229,317.8206,-0.25635,152.0513,-64.3589,5.8975,52.564,-17.6924,-49.4873,106.4102,-36.667,0.25635,
-28.9744,-40.7693,92.0515,332.8206,5.3845,145.8977,-61.282,8.4617,55.6409,-27.4358,-42.8206,102.3079,-33.0769,-5.3845,
-33.0767,-40.769,84.3589,347.8206,1.7949,142.8208,-62.3076,12.0513,66.9233,-18.7178,-36.1538,103.3335,-29.4868,-1.7949,
-23.3335,-26.4102,90,362.8206,-2.3076,138.2051,-60.7695,14.1025,70,-8.9746,-33.5898,105.3843,-28.4619,2.3076,
-23.5898,-25.6411,93.333,377.8206,0,140.5127,-47.1797,12.8203,81.5381,-6.1538,-22.5645,118.4614,-28.2051,0,
-24.6152,-32.8203,84.1025,392.8206,0,130.2563,-48.2051,16.9233,78.9746,-1.5381,-24.6152,122.0513,-25.6411,0,
-17.6924,-31.5386,73.5898,407.8206,-0.25635,116.1538,-58.2051,18.7183,63.9746,-2.8203,-35.6411,107.9487,-24.3589,0.25635,
-27.949,-34.1028,68.9744,422.8206,1.282,116.1541,-47.4358,11.0256,55.6409,-11.0256,-33.0769,102.8206,-29.4871,-1.282,
-19.4868,-26.6665,69.231,437.8206,2.0513,114.8721,-32.4358,9.231,60,-11.7949,-30.769,104.6157,-26.6665,-2.0513,
-12.051,-31.5383,64.3591,452.8206,1.282,102.3079,-38.2053,15.1282,57.1794,-5.8972,-35.6409,94.6155,-14.6155,-1.282,
-15.8975,-36.4102,58.4614,467.8206,-2.564,88.2051,-48.2053,21.5386,56.9229,-1.5386,-33.8462,86.6665,-18.4614,1.5386,
-8.9741,-33.0767,53.5898,482.8206,-13.5898,79.7437,-47.4355,21.7949,70,0.25635,-25.8975,98.7183,-27.9487,-0.25635,
-17.9487,-44.6152,48.2051,497.8206,-21.0259,82.0513,-42.564,14.8716,83.5898,1.5386,-17.9487,113.7183,-24.1025,-1.5386,
-22.0513,-44.6152,37.436,512.8206,-21.0259,84.1025,-48.2051,14.8716,72.3076,-0.5127,-20,114.8716,-25.1284,0.5127,
-14.8718,-35.8972,32.8206,527.8206,-16.9231,81.5383,-49.2307,21.0256,65.1282,-1.5383,-18.9744,102.0515,-30.7693,1.5383,
-7.9485,-29.4871,36.6667,542.8206,-9.9998,85.8977,-34.2307,24.3591,68.4617,-1.282,-13.5896,99.2307,-20.2561,1.282,
-0.76929,-27.4358,33.0769,557.8206,-9.4871,85.3845,-25.3845,22.3079,53.4617,-4.3586,-19.2307,98.2053,-11.0256,0.76929,
-15.7693,-41.0256,18.0769,572.8206,-19.4871,70.3845,-38.4617,16.9231,52.3079,-0.51294,-18.4617,104.6155,-15.8972,0.51294,
-22.3079,-41.7947,4.3591,587.8206,-24.8718,55.6409,-46.9231,16.1541,67.3079,5.3845,-13.5896,114.1028,-24.3591,-4.3591,
-14.8716,-36.9229,7.6924,602.8206,-17.436,67.1797,-36.4102,16.9233,73.3335,4.6152,-17.9487,127.6924,-26.6665,-4.6152,
-18.7178,-43.8462,8.4614,617.8206,-18.7178,74.6152,-33.0767,14.1025,68.9746,3.3335,-20.769,132.0513,-30,-3.3335,
-10,-43.3335,5.3848,632.8206,-28.4614,59.6152,-38.2051,17.6924,83.8462,5.8975,-13.0771,117.0513,-30.5127,-5.3848,
-11.5383,-44.8718,5.3845,647.8206,-29.4871,44.6152,-36.6667,17.1794,77.6921,8.9744,-11.5383,106.9231,-24.3591,-5.3845,
-9.2307,-38.9744,1.0256,662.8206,-24.6155,53.3333,-39.9998,17.4358,62.6921,10.7693,-13.3333,118.9744,-22.051,-1.0256,
-3.5896,-38.9744,-7.1794,677.8206,-24.1028,56.9231,-41.0256,22.0515,72.8206,13.3333,-1.0256,123.0769,-22.5642,1.0256,
-14.8716,-49.7437,-15.8975,692.8206,-27.6924,41.9231,-38.9741,17.9487,87.8206,8.2051,5.1284,111.2822,-20.5127,-5.1284,
-0.25635,-37.1797,-8.9746,707.8206,-16.1538,36.1538,-32.0513,23.8462,72.8206,10,0.25635,109.4873,-8.9746,-1.2822,
0,-43.0767,-4.1025,722.8206,-12.8203,51.1538,-29.2305,21.5386,57.8206,9.7437,-6.6665,112.3081,-10.769,0,
-4.8718,-49.4873,-8.4617,737.8206,-16.6667,49.4871,-28.4617,18.718,66.4104,8.9744,1.282,118.718,-24.3591,-1.282,
-3.0769,-46.1538,-17.9485,752.8206,-15.8972,52.8206,-30.2561,20.5129,75.3845,12.3079,3.0769,124.6155,-26.6667,-4.6155,
-6.6665,-45.6411,-18.9746,767.8206,-12.8203,67.8206,-31.2822,23.0771,64.1025,20.5127,-3.0771,133.8462,-15.3848,3.0771,
-4.1028,-44.1025,-19.9998,782.8206,-25.6409,64.1028,-41.5386,20.0002,74.3591,16.9231,-3.5896,138.9744,-21.0256,3.5896,
-12.0515,-50,-29.4871,797.8206,-40.2566,49.1028,-46.4104,15.6409,84.3591,13.5896,1.282,137.1794,-26.4104,-1.282,
-13.5896,-38.718,-41.282,812.8206,-40.2563,35.1282,-40.7693,18.718,71.5383,21.7947,-2.8206,131.5383,-18.718,2.8206,
-6.9231,-23.718,-43.3335,825.3845,-36.6667,33.5896,-42.3079,18.718,66.4104,22.8206,-10.5129,131.0256,-19.7439,6.9231,
-19.4873,-8.718,-40.5129,829.7437,-36.4102,32.8203,-43.0769,19.4873,81.4104,17.9487,-13.3335,134.3589,-26.1538,2.0513,
-21.7949,5.8975,-53.0767,822.8208,-43.3333,20.7695,-42.3076,20.7695,75.6411,15.6411,-22.8203,126.9233,-26.9229,-5.8975,
-20.5132,3.5898,-63.5898,813.333,-49.7437,11.7949,-44.1028,16.9229,66.1538,20,-23.0771,128.2051,-26.667,-3.5898,
-24.3589,3.8462,-62.3076,812.0513,-50.5127,12.0513,-48.9741,15.6411,73.0771,17.6924,-16.6665,124.3594,-31.5381,-3.8462,
-22.3074,10.0002,-60.769,809.4871,-46.9231,10.0002,-46.9231,13.5901,84.8718,8.9744,-10.5129,116.1541,-31.0256,-8.9744,
-22.564,5.6411,-57.4358,808.2051,-39.4873,17.436,-34.3589,13.8462,89.231,12.8203,-6.6665,126.6665,-22.0513,-5.6411,
-11.2822,2.0513,-55.8975,797.9487,-38.9744,16.9229,-33.8462,20,74.3589,17.436,-13.3335,120.5127,-18.9746,-2.0513,
-11.7949,-2.0513,-58.4617,782.9487,-43.0769,7.6924,-37.436,22.0513,72.3076,22.564,-13.3335,105.5127,-19.4873,2.0513,
-19.7434,-4.8718,-65.8975,767.9487,-47.9487,5.8972,-40.7693,21.282,87.3076,28.4617,-8.4617,111.0256,-23.3333,4.8718,
-10.2563,-5.6411,-70.2563,758.4614,-46.1538,12.3076,-44.1025,25.6411,95.3848,28.2051,-9.7437,119.4873,-26.1538,5.6411,
-14.8716,-13.8462,-65.1282,760,-37.4358,24.1025,-41.0256,28.7178,90.769,27.1797,-6.6665,120.5127,-17.9487,6.6665,
-11.0256,-9.4875,-60.2566,754.1023,-32.0515,28.9744,-40.2566,27.4358,81.282,27.9485,-5.3845,123.3333,-13.0769,5.3845,
-6.1538,-6.6665,-57.4358,749.231,-29.2307,31.2822,-37.4358,26.667,75.8975,31.7949,-10.769,126.1538,-15.8975,6.1538,
-15.1282,-8.9744,-52.051,747.4363,-29.4871,36.6667,-30.5127,26.9231,71.0256,30.0002,-15.1282,118.718,-21.282,8.9744,
-8.9746,-5.3848,-52.5642,737.1797,-30.5129,38.7178,-33.0769,25.3848,65.3848,22.3076,-13.0771,107.436,-20.769,5.3848,
-10.7695,-6.6665,-56.9231,732.8203,-23.0771,44.6152,-34.3591,24.6152,64.1025,23.0767,-4.6152,114.8716,-10.7695,4.6152,
-16.1538,-2.3076,-59.7437,735.1279,-20.2563,48.9741,-34.1028,23.333,57.1792,22.8203,-7.9487,118.2051,-15.6411,2.3076,
-14.1025,0.25635,-59.231,728.9741,-19.7437,50,-36.1541,22.3076,58.7178,21.2817,-15.1284,105.8975,-27.436,-0.25635,
-13.5896,-3.8459,-53.5898,713.9741,-16.6667,48.9744,-35.6411,26.9231,62.8206,25.3845,-17.1794,95.1282,-22.3079,3.8459,
-9.4871,-2.3079,-51.5386,699.7434,-18.2053,41.282,-34.6155,27.9485,47.8206,24.3591,-24.8718,89.4871,-20.2566,2.3079,
-12.0515,-3.8459,-51.0256,701.282,-16.6667,45.8972,-26.9231,25.3845,51.0256,23.3333,-17.1794,100.2566,-20.7693,3.8459,
-13.8462,-2.564,-55.3848,695.8975,-16.9233,51.2822,-28.7178,22.0513,66.0256,18.4614,-9.231,106.1538,-21.5386,2.564,
-12.8206,-0.51294,-53.3333,682.051,-21.5383,49.2307,-36.9231,24.6155,63.0769,19.4871,-16.4104,102.051,-21.0256,0.51294,
-15.3845,-3.5896,-49.2307,675.3845,-22.5642,50.2566,-34.3589,29.2307,51.7952,24.1028,-19.9998,103.5896,-21.0256,3.5896,
-8.4614,-1.7949,-53.0769,668.9741,-23.3335,52.0513,-31.0259,24.8716,52.564,20.2563,-12.564,111.5386,-22.3076,1.7949,
-12.3076,-4.6152,-48.2051,663.5898,-20.5127,57.9487,-25.6411,21.0259,60,22.564,-10.2563,122.0513,-18.9741,4.6152,
-14.6155,-5.3845,-47.436,648.9744,-17.6926,49.9998,-23.8464,22.3074,57.1794,25.8972,-18.718,115.6409,-20.7693,5.3845,
-8.2048,-5.1282,-49.2305,633.9744,-17.4358,40.5129,-31.7947,26.1541,56.4104,24.6155,-12.8206,113.8464,-26.1536,5.1282,
-15.1279,-11.0254,-45.3845,628.9746,-13.0767,48.9746,-39.2307,26.4102,58.2051,22.8208,-6.4102,120.7695,-24.3589,6.4102,
-10.5127,-3.8462,-47.4358,616.1538,-8.9741,50,-29.4868,23.3335,53.0771,18.2051,-15.1279,107.9487,-22.3076,3.8462,
-11.5386,-3.3335,-51.0256,604.3589,-11.5386,46.9229,-20.2563,21.7949,57.6924,18.2051,-11.5386,105.3848,-20.769,3.3335,
-10.7693,-5.6409,-48.2051,597.4358,-12.8206,46.1541,-30.7693,27.1794,64.1028,27.6921,-4.6155,120.3848,-21.0256,4.6155,
-3.5898,-4.6152,-48.2051,582.4358,-11.2822,42.564,-31.7949,28.7178,61.5386,32.3076,-9.231,118.9746,-23.0767,3.5898,
-15.3845,-8.2048,-54.8718,573.8464,-12.8206,43.5896,-23.0769,22.0515,62.5642,24.6155,-3.0769,111.282,-22.5642,3.0769,
-14.1025,-3.8462,-57.6921,569.4873,-18.2051,44.3594,-37.6921,20.7695,58.7183,13.5898,-0.25635,109.4873,-24.3589,0.25635,
-7.436,-3.8462,-54.1028,557.6924,-15.6411,38.7178,-40.7693,26.4102,54.1025,22.8203,-4.3589,110,-18.2051,3.8462,
-10.5127,-5.8975,-57.1794,542.6924,-16.1538,29.4873,-25.7693,27.436,56.1538,33.0767,-8.4614,107.436,-18.7178,5.8975,
-7.9485,-3.3333,-59.7437,535.1282,-15.6409,34.6155,-26.9231,24.8718,61.282,28.4617,-10.0002,107.9485,-25.3845,3.3333,
-14.3594,-8.2051,-59.4873,526.6665,-14.8721,40.5127,-36.9233,23.0767,58.9741,24.1025,-6.1538,112.8203,-22.5645,6.1538,
-10.769,-7.6924,-65.6409,511.6665,-23.0767,25.5127,-34.3589,22.0513,48.2051,20.5127,-4.1025,106.6665,-22.564,4.1025,
-8.4617,-10.5129,-66.4102,497.6921,-20.2566,22.8206,-21.282,21.7947,60.2566,20.2566,-0.25659,105.3845,-20.7693,0.25659,
-17.1797,-16.6665,-68.4614,483.3335,-14.1025,25.3848,-27.9487,21.2822,75.2566,25.8975,1.2822,112.564,-20.769,-1.2822,
-13.3333,-12.3079,-77.9487,468.3335,-18.9744,12.3079,-42.9487,20.5129,67.1794,29.2307,1.5383,117.4358,-26.6667,-1.5383,
-22.3076,-17.6924,-83.3335,453.3335,-27.436,13.5898,-47.9487,18.7178,53.0767,23.333,0.25635,113.0767,-27.9487,-0.25635,
-19.4873,-15.3848,-83.0769,443.5898,-25.6411,26.1538,-39.4871,25.6411,41.5386,18.4614,-2.0513,104.6152,-23.0767,2.0513,
-14.1025,-14.6152,-82.3076,438.7178,-22.3076,26.9229,-41.7949,27.436,39.7437,22.3076,-1.2822,104.8716,-21.2822,1.2822,
-15.8975,-16.4102,-73.3335,434.3589,-20,24.6152,-37.9487,22.0513,51.7949,23.0767,0.5127,109.7437,-26.6665,-0.5127,
-3.333,-5.8975,-59.7434,431.0259,-11.5386,28.4614,-25.8975,25.8975,56.1538,20.2563,2.3076,107.436,-23.8462,-2.3076,
-13.8462,-10.2563,-60,419.4873,-14.8721,28.2051,-30.2566,28.7178,52.3076,22.564,2.0513,106.1538,-19.4873,-2.0513,
-21.5383,-12.8206,-67.6924,404.6155,-27.6921,17.4358,-45.2566,22.5642,54.3591,23.5896,1.5383,105.1282,-27.6921,-1.5383,
-18.9744,-13.8464,-65.6411,393.3333,-29.2307,14.3591,-48.718,16.9231,58.4617,16.4104,2.5642,101.0256,-33.8462,-2.5642,
-21.282,-16.6667,-64.3591,387.4358,-18.718,23.8459,-34.6155,20.7693,59.7434,9.4871,2.8206,104.3586,-28.9744,-2.8206,
-13.0767,-8.9741,-69.4871,379.7437,-10.5127,27.9487,-26.9229,26.4102,56.1538,5.3848,3.8462,108.9746,-23.333,-3.8462,
-22.8206,-13.0769,-69.4873,372.051,-20.7693,22.8206,-34.6155,23.3333,49.4871,3.3333,4.3586,103.3333,-25.3845,-3.3333,
-27.6924,-13.8462,-65.1282,364.1025,-35.7693,17.9487,-47.6924,21.0254,50.769,4.1025,3.5898,97.436,-30.769,-3.5898,
-17.4363,-13.3337,-63.5898,350.2561,-33.8464,9.7434,-49.231,22.051,63.5896,7.1794,7.1794,105.1282,-28.718,-7.1794,
-15.8975,-16.9229,-60.5127,336.4102,-18.8464,2.564,-34.231,22.564,60,12.8203,8.2051,109.7437,-22.0513,-2.564,
-10.0002,-10.5129,-56.6667,325.3845,-3.8464,-1.282,-19.231,25.3845,46.9231,12.051,7.9485,97.1794,-22.3079,1.282,
-14.6152,-12.0513,-56.1538,320.2563,-8.4614,2.8203,-18.7178,23.8462,59.7437,10.5127,12.564,96.6665,-20.769,-2.8203,
-11.5383,-7.4358,-56.1538,317.6921,-9.4871,4.8718,-25.3848,22.8206,59.2307,11.0256,6.9231,103.3333,-17.1794,-4.8718,
0.76929,-1.282,-52.051,308.4617,-3.8459,-7.4358,-24.3589,29.4875,44.2307,17.1794,-0.76929,94.6155,-20.769,2.3079,
-5.8972,-8.9744,-50.5127,293.4617,-2.8206,-15.1282,-21.282,28.9744,42.8206,19.2307,2.8206,87.4363,-25.8972,6.9231,
-3.8462,-3.8462,-48.9744,284.3589,-0.25635,-4.8716,-18.2051,22.8208,55.1284,9.4873,7.9487,93.0771,-25.3845,0.25635,
-10.7693,-7.1794,-53.8462,280.0002,-0.51294,0.51294,-13.3333,16.4104,43.5896,5.1282,6.1541,93.8464,-24.1023,-7.6921,
-7.436,-5.8975,-54.6155,268.9741,0.76904,-1.7949,-5.8975,25.8975,45.3848,15.6411,10,97.6924,-17.1797,-0.76904,
0.51294,-1.5388,-56.4104,254.3586,-8.718,-9.7439,-18.4617,28.2048,49.2307,14.3586,6.1536,95.3845,-18.9744,-0.51294,
-3.3335,-0.25635,-52.0513,257.6924,-7.436,-0.25635,-19.231,27.9487,47.9487,15.6411,8.9741,92.0513,-19.231,0.25635,
-0.76953,0.25635,-58.2053,244.3589,-3.8462,-0.25635,-18.7183,23.8462,33.0767,10.5127,2.8203,84.3589,-24.8721,-9.4873,
1.0254,-1.5386,-57.436,232.8203,-2.5645,0.5127,-19.4873,25.6411,34.3589,13.8462,-0.5127,95.3843,-20,-2.0513,
-5.3848,-1.2822,-56.6667,230.5127,-7.436,-1.2822,-21.7949,28.4614,49.3589,22.8203,1.2822,106.9233,-19.2307,9.4873,
-3.8462,0.76904,-64.8718,216.6665,-9.4873,-6.4102,-22.8203,22.8203,54.1025,19.231,-0.76904,100.769,-25.8975,1.2822,
-5.6411,-2.0513,-57.9487,209.231,1.5386,5.1284,-11.2822,22.0513,42.564,14.8721,-1.5386,100,-22.0513,-1.5386,
-3.0771,0,-52.3079,201.0254,0,3.0767,-10.2568,22.564,33.8462,9.7432,-6.667,93.333,-24.1025,-4.6157,
-2.3076,2.8208,-53.5896,196.667,-3.333,-0.25635,-17.1792,22.3076,42.3076,14.1025,0.25635,95.6411,-24.3589,-4.3589,
-6.9231,0.76929,-51.0256,190.5129,-1.7947,4.8718,-19.7434,21.282,35.6414,16.6667,-0.76929,99.2307,-24.3586,-1.7947,
-0.76929,1.282,-47.949,175.5129,-0.76929,0.76929,-15.1282,22.3074,24.3586,13.0769,-11.5388,95.1282,-22.3079,-1.282,
-4.3586,-1.282,-54.1023,162.3079,6.4104,-1.7947,-5.3845,25.8977,39.3586,17.6926,-1.7947,101.7952,-12.5637,1.282,
-2.3076,-2.8203,-68.4614,147.3079,2.3076,-14.6152,-15.6411,20.769,52.564,16.1538,9.4873,93.0771,-15.6411,-3.8462,
2.3076,-2.3076,-63.3333,132.3079,-3.3335,-27.9487,-25.3845,20.769,55.1284,19.7437,20.2563,85.8975,-15.6411,-2.3076,
-3.0767,-3.5894,-54.8716,130.2568,0,-29.2305,-18.4614,28.7183,60.5132,27.1797,20,91.2822,-11.282,0,
-0.76929,-4.8718,-64.3591,120.7693,0.76929,-20.2566,-17.6921,25.8972,52.051,21.282,5,87.4358,-17.6921,-6.9231,
-3.8459,-4.3591,-64.8718,115.6409,2.3079,-8.9744,-16.6667,21.7947,57.1794,19.2307,3.3333,91.5383,-16.6667,-2.3079,
-3.3335,-0.25635,-65.3845,103.3335,0.25635,-19.7437,-24.8718,20.2563,50,16.6665,1.7949,86.4102,-23.8462,-3.8462,
1.7949,-1.7949,-63.8462,100.7695,3.3335,-18.7178,-21.7949,21.7949,37.1797,17.6924,-8.9741,85.3848,-26.9231,-5.3848,
-0.76929,-4.3591,-55.6411,105.3845,8.9744,-3.7178,-6.7949,22.3074,45.8972,21.7947,0.76929,100.3848,-16.6667,-0.76929,
-0.76929,-2.3079,-62.3079,90.3845,0.76929,-14.1028,-15.1282,17.1794,39.2307,8.9744,5.3845,92.5637,-21.282,-7.949,
-2.3079,-5.3845,-64.8718,76.6667,2.3079,-15.1282,-16.6667,22.3079,31.0256,12.051,2.3079,85.3845,-22.8206,-6.4104,
1.7949,-1.7949,-58.7178,83.3335,13.0771,-4.8716,-1.7949,23.8462,36.667,22.3081,-2.3076,94.6157,-20.2563,-3.333,
1.282,-1.282,-56.6665,72.5642,4.3591,-5.8972,-4.8718,14.6155,40.2566,17.1794,-4.3586,97.6926,-23.3333,-6.4104,
-2.3079,-0.76929,-53.0769,67.4358,-2.3079,-7.4358,-9.4871,19.7434,42.3079,23.3333,4.3591,99.2307,-16.1536,0.76929,
-0.25635,-2.8208,-60.7693,54.1025,3.3335,-22.3079,-16.6665,19.7437,33.0767,20.769,0.25635,93.0767,-16.6665,-4.8721,
-4.1025,-4.6157,-61.0259,44.6152,18.3335,-14.8721,-9.7437,16.4102,36.9229,22.0513,1.5386,100.5127,-14.3589,-1.5386,
-7.949,-7.949,-72.0513,33.0769,8.4617,-10.0002,-9.4871,12.5642,36.1536,20.7693,1.7947,97.6921,-20.2566,-1.7947,
-1.5383,-7.6926,-77.9487,28.718,1.5383,-15.8977,-5.1282,16.9231,36.4104,19.9998,8.2048,94.8718,-20.0002,-5.6409,
-13.0771,-10.5127,-73.0769,30,5.3848,-19.7437,-5.3848,15.1284,35.1284,14.6152,7.9487,95.1284,-20.769,-8.4614,
-8.2051,0,-68.2051,29.7437,5.1284,-18.4614,-11.2822,13.8462,29.231,11.7949,0,90.7695,-27.6924,-7.1792,
-4.3586,-1.282,-67.4358,27.4358,7.949,-16.1536,-3.8459,17.1794,33.0769,22.3079,1.282,95.1282,-20.7693,-3.8459,
-7.436,-7.436,-71.0256,16.1538,10,-24.8718,-3.8462,15.6411,35.1284,20.7695,3.8462,95.6411,-16.1538,-7.9487,
-3.0769,-5.1282,-71.7949,3.0769,7.1794,-31.7949,-15.8972,13.3333,33.3333,11.282,3.0769,83.0769,-23.0769,-13.8459,
-1.7949,-0.76904,-61.7949,0.76904,18.2051,-20.7693,-4.8716,22.8203,42.8203,24.8716,13.0771,86.4102,-10.5127,-2.3076,
-2.5642,-1.0256,-67.6924,-11.282,18.9744,-28.2051,1.0256,21.5383,39.4871,28.718,9.2307,89.7434,-9.2307,-4.6155,
-7.6921,-3.0769,-63.5896,-7.6921,19.4871,-29.7437,3.0769,15.8977,44.6155,23.5896,10.7693,95.8977,-15.8972,-8.2053,
-8.9741,0.25635,-53.0769,-0.25635,23.3335,-15.6411,-2.3076,16.667,46.9233,20.2563,15.1284,96.1538,-14.1025,-4.3589,
-4.8718,4.8718,-56.6667,-6.9231,26.9231,-14.6155,-13.0769,15.1282,37.6921,21.282,9.9998,88.9744,-12.5642,-6.9231,
-11.2822,2.564,-47.6924,-2.564,32.8203,-11.7949,-4.1025,14.3589,44.6152,28.7178,9.7437,97.9487,-11.2822,-5.6411,
-9.9998,-0.25659,-48.4614,-8.4617,27.9485,-19.2307,1.282,11.5383,39.2307,18.718,0.25659,90.5129,-21.7947,-13.0769,
-3.0769,-1.0256,-57.436,-14.3591,33.8459,-21.0256,1.0256,13.3333,34.3591,14.8718,3.5896,85.1282,-19.4871,-9.7439,
-5.1284,3.5898,-53.8462,-7.6924,29.7437,-17.9487,-9.7437,14.3589,42.0513,22.0513,12.3076,94.8716,-13.3335,-3.5898,
-6.6667,6.6667,-46.1541,-8.2053,14.7437,-27.6924,-22.0515,10.2561,39.4871,23.0769,7.1794,96.4104,-22.5642,-10.7693,
-6.9233,2.3076,-43.3335,-13.5898,29.7437,-31.5386,-7.0515,12.0513,39.2305,30.5127,11.5386,102.3076,-17.6924,-6.4102,
-8.2053,-2.5642,-52.8206,-27.1794,43.5896,-41.0256,3.0769,2.5642,32.3079,22.0515,4.6155,92.3079,-15.3845,-9.2307,
-6.1538,0,-45.6411,-27.1794,41.0259,-46.1538,0,1.5386,30.2563,19.4873,2.564,88.2051,-11.7949,-10.2563,
-5.6414,-4.6155,-40.5129,-35.8975,47.6921,-57.9487,7.6921,4.6155,21.5383,22.051,4.6155,90.2561,-12.8206,-11.282,
0.25635,-7.9487,-44.8718,-47.4358,56.6665,-68.4614,16.1538,0.25635,11.0259,15.1284,-0.25635,83.3335,-16.6665,-15.6411,
0,-3.0771,-36.9233,-36.4104,59.4868,-55.3848,24.6152,6.1538,20,17.4355,0,80.5127,-10.7695,-6.667,
-0.51294,0.51294,-37.9487,-41.5383,52.8206,-57.9487,19.4871,7.1794,13.8459,11.7947,-7.1794,68.2053,-17.9485,-9.7434,
3.5896,-5.1282,-36.4104,-53.8462,55.8972,-64.6155,21.5383,5.1282,9.7434,11.7947,-3.5896,65.6409,-12.3079,-14.8718,
1.2822,-11.5386,-33.5898,-58.718,55.1279,-64.8718,18.7178,5.8975,17.1792,18.7178,-1.2822,66.9229,-1.2822,-12.564,
5.8975,-5.8975,-43.8459,-68.4614,51.0259,-69.9998,7.9487,7.9487,15.6411,17.6924,-10,60.7695,-12.0513,-12.564,
1.0256,-8.2053,-49.231,-73.8464,51.7947,-71.7952,14.3586,7.6921,17.9485,16.9231,-1.0256,66.1536,-17.949,-9.7439,
-1.5386,-10.769,-52.3076,-80,47.1797,-77.9487,12.8203,4.6152,18.9746,13.8462,1.5386,62.0513,-15.3848,-12.3076,
5.6409,-5.6409,-52.3076,-84.1025,50.7693,-75.3845,5.6409,9.2307,11.282,15.8972,-5.6409,53.8459,-11.7947,-14.3591,
3.8462,-4.8721,-46.9231,-85.3848,58.2051,-68.4617,8.9741,13.0767,5.3848,20.2563,-3.8462,57.1792,-12.564,-11.0259,
2.564,-8.7183,-47.1794,-95.8975,48.7178,-80.5129,5.6411,4.1025,6.1538,13.3335,-2.564,57.9487,-15.3848,-11.7949,
-2.0513,-9.231,-43.0769,-93.8462,51.2822,-72.8206,13.3335,4.1025,21.1538,22.564,2.0513,69.231,-3.0771,-3.5898,
1.282,-2.8206,-43.3335,-90,60.2561,-57.8206,21.282,9.4871,25.3845,27.9485,-1.282,79.7434,-6.9231,-4.3591,
6.1538,-6.1538,-46.6667,-89.7437,53.8462,-52.3079,15.3848,7.1792,10.769,13.8462,-9.231,77.436,-19.4873,-11.7949,
1.0256,-10.7693,-37.9485,-83.0767,54.8718,-53.8459,16.4104,10.7693,15.385,14.8718,-1.0256,76.9231,-8.2048,-5.6409,
0.25635,-10,-36.6667,-97.6924,54.1025,-63.3335,18.2051,8.4614,16.6665,17.1792,-0.25635,68.4614,-6.9233,-11.5386,
1.282,-15.1282,-37.6921,-106.9229,56.6667,-64.8716,19.2307,5.3845,11.5383,14.6155,-1.282,61.282,-11.0256,-15.1282,
4.3589,-13.5898,-39.7437,-105.3848,61.2817,-61.2822,16.6665,8.9741,1.7949,7.4355,-1.7949,55.1279,-11.0259,-10,
13.0769,-1.282,-32.0513,-104.8718,66.4104,-57.6921,24.8718,12.5642,0.76929,10.5129,-0.76929,60.2566,-6.9231,-5.3845,
4.6155,-6.6667,-23.5896,-103.0767,67.6926,-54.3589,34.8718,6.6667,6.1541,15.8977,-4.6155,71.282,-7.6921,-10.2561,
14.6155,-1.282,-25.3848,-102.3079,69.4871,-54.6155,29.4871,10.5129,1.282,17.1794,-5.3845,67.4358,-7.4358,-12.0515,
17.4358,2.5642,-32.8206,-112.8206,65.6409,-57.9487,15.8972,16.9231,-5.6409,20.5129,-2.5642,57.4358,-7.6921,-5.6409,
7.949,-2.8206,-34.6152,-122.8206,59.2307,-60.7693,9.4871,13.5896,2.8206,21.282,-4.8718,63.3333,-10.5129,-6.4104,
8.7178,-4.6152,-37.4358,-125.1282,62.564,-63.5896,9.231,4.6152,8.7178,13.8462,-8.2051,66.6665,-14.8716,-13.8462,
5.3848,-3.8462,-33.5896,-118.2048,69.4873,-54.1023,20.2568,3.8462,10.5132,17.6924,-3.8462,69.4873,-14.1025,-6.9229,
6.9231,-1.282,-32.0515,-126.4104,60.2561,-53.0771,21.7947,4.3586,1.282,17.1794,-8.9744,70.5125,-19.7439,-6.4104,
7.4358,-5.3845,-33.5898,-139.7437,53.0769,-62.3076,18.718,6.4104,4.8718,16.6667,-4.8718,74.6155,-14.6155,-6.9231,
-1.2822,-11.0259,-43.3335,-148.9744,53.0767,-73.5898,12.564,4.3589,15.6411,18.2051,1.2822,67.436,-8.4614,-10,
4.6155,-5.6409,-45.6409,-149.2307,53.3333,-70.7693,9.2307,3.0769,12.8206,16.4104,-3.0769,63.0769,-11.282,-16.4104,
2.0513,-6.1538,-36.9229,-139.4871,55.8975,-55.8972,11.7949,5.6411,10.2563,15.8975,-2.0513,78.0769,-9.7437,-11.7949,
5.1282,-3.0769,-38.9744,-142.564,54.3591,-57.9487,5.1282,7.1794,3.0769,15.3845,-4.6155,77.949,-11.282,-8.2053,
8.2051,-2.0513,-38.4617,-148.718,55.8975,-60,2.0513,8.7178,3.5898,21.0254,-9.231,70.2563,-8.7183,-10.7695,
5.8972,-5.3845,-33.0769,-148.4617,60.2561,-56.6667,4.8718,11.0256,10.5129,21.282,-7.4358,68.9744,-4.8718,-8.4617,
18.9744,-1.0256,-38.4617,-155.3845,59.4871,-62.0513,1.0256,12.8206,3.5896,16.9231,-5.1282,57.4358,-11.7947,-5.1282,
15.3845,0.51294,-38.9744,-154.3591,58.4617,-54.8718,9.2307,16.4104,-2.5642,23.5896,-1.5383,58.4617,-9.2307,-0.51294,
11.7947,1.0256,-34.8721,-153.3335,55.3845,-51.2822,14.3586,16.9231,-6.1541,22.5637,-2.5642,66.6667,-2.5642,-1.0256,
14.8718,-2.5642,-35.3845,-155.3845,53.3333,-55.8972,6.6667,10.7693,2.5642,17.949,-3.5896,70.7693,-6.1536,-8.2048,
5.1282,-5.6409,-41.0256,-153.8462,52.8206,-50.2563,3.5896,6.1541,8.2053,19.4871,-3.5896,74.3591,-14.3591,-9.7434,
5.8977,-1.282,-47.9487,-159.7434,50.5129,-45.8975,1.282,7.949,2.8206,17.1794,-4.8718,80.2566,-12.051,-6.4104,
5.8972,-10.0002,-46.9231,-170,47.4358,-49.4873,-5.8977,10.5129,12.051,19.2307,0.76929,84.3591,-2.8206,-0.76929,
8.7178,-11.2822,-43.0769,-181.0256,43.5898,-57.4358,-9.231,7.6924,22.564,21.0254,4.6152,75.8975,-6.1538,-4.6152,
6.6665,-11.7949,-49.7437,-189.7437,44.1025,-65.6411,-0.5127,0.5127,16.4102,14.8716,1.0254,65.6411,-12.8208,-13.3335,
-1.0256,-17.9485,-57.4355,-194.3586,47.6926,-70.769,6.1541,4.1028,11.2825,16.9231,1.0256,66.1541,-7.6921,-9.2307,
9.9998,-12.5642,-54.1025,-196.6667,46.4104,-69.4873,-0.76929,10.5129,11.5383,21.282,0.76929,67.9485,-0.76929,-6.4104,
4.1023,-16.9231,-49.231,-194.3591,43.0769,-56.9233,-1.0256,4.1023,18.4612,18.4612,1.0256,75.3845,-1.5388,-7.6926,
-1.282,-15.6414,-50.5129,-194.6155,42.3074,-56.1541,2.8206,1.282,21.282,19.7434,5.3845,78.2048,-7.4363,-8.9744,
2.8203,-12.564,-55.1282,-200.2563,38.2051,-65.8975,-1.2822,1.2822,6.282,17.6924,3.3335,63.2048,-11.0259,-13.0771,
1.0259,-13.333,-46.1538,-191.282,38.9746,-58.4614,0.5127,4.6157,-0.5127,16.9233,3.5898,52.8208,-4.1025,-9.7437,
8.4617,-7.9485,-41.7949,-186.4102,37.6921,-56.1538,-2.3079,4.3591,12.5642,13.5896,2.3079,54.1028,-4.3591,-12.5642,
4.1025,-13.3335,-45.1282,-189.2307,34.8716,-61.0256,-2.564,2.564,25.1284,16.9229,8.2051,62.0513,-4.1025,-11.2822,
0.76929,-16.6667,-49.4873,-195.1282,32.5642,-65.8975,-0.76929,4.8718,24.8718,25.8972,9.9998,65.3845,-3.8464,-6.4104,
10.7693,-12.3079,-48.718,-200.5129,34.3591,-67.1794,-2.5642,6.1541,17.4358,28.2053,2.5642,61.5383,-8.718,-7.6921,
3.8462,-18.718,-44.3589,-203.3333,35.6411,-61.282,-1.2822,3.3335,14.1025,18.7178,1.2822,58.7178,-7.9487,-12.564,
5.1279,-18.9746,-44.6155,-205.6411,33.8462,-56.9231,-2.564,3.0767,16.4102,9.2305,2.564,55.8975,-4.6157,-15.3848,
3.8459,-21.7952,-43.8464,-202.8208,32.051,-57.1797,-2.8206,3.3333,24.3586,17.6921,2.8206,60.7693,-4.8718,-11.5388,
0,-26.667,-40.0002,-199.4873,30.769,-53.3335,4.1025,0,21.0254,23.0767,0,67.1792,-8.7183,-11.7949,
5.6409,-22.0515,-43.0769,-202.5642,32.8206,-46.6667,8.718,-0.51294,14.3591,15.8972,0.51294,69.2307,-7.6926,-11.7952,
-1.5386,-24.6155,-51.7949,-208.2053,35.3843,-45.1284,2.0513,1.5386,16.9229,18.4614,6.6665,73.8462,-3.0771,-4.1025,
2.0513,-23.0769,-57.9487,-210.769,33.8462,-44.1025,-3.5898,3.5898,13.3335,24.1025,6.1538,74.8721,-3.0767,-2.0513,
2.3079,-28.9744,-61.7949,-211.0256,25.8977,-43.3333,-1.282,1.282,6.9231,21.7952,3.8464,73.0769,-4.8718,-5.8972,
-0.25635,-35.1279,-64.3589,-220.769,21.2822,-55.1279,0.25635,1.7949,8.9746,16.667,4.8721,67.9487,-6.4102,-6.4102,
10.0002,-29.4871,-62.3076,-228.9741,25.3845,-64.3589,-7.4358,5.3845,14.1028,19.7439,7.949,59.2307,-6.4099,-5.3845,
1.7949,-30.5129,-55.6411,-220.7693,30,-55.6411,-6.9233,4.8716,15.1279,26.4102,10,60.2563,-1.7949,-5.3848,
-2.0515,-29.7437,-50.2563,-216.9231,24.1028,-52.3076,2.5642,2.0515,6.1541,16.4104,5.1282,58.9744,-8.2053,-12.3079,
-2.8203,-29.4873,-43.3333,-214.1025,19.231,-48.9744,8.9741,2.8203,14.1025,10,2.8203,64.3589,-11.5386,-12.564,
-3.5896,-28.2051,-41.5386,-201.5386,24.1028,-37.4358,2.0515,8.718,27.1794,23.0769,9.2307,79.3589,-2.0515,-2.0515,
4.6155,-28.2051,-47.6921,-205.6409,23.5901,-42.564,-10.2561,4.1028,12.1794,20.5129,3.5901,75.8977,-3.0769,-9.2307,
0.5127,-33.3335,-42.0513,-214.3591,30.2563,-44.1028,2.0513,-0.5127,2.564,14.3589,3.0767,65.1279,-3.0771,-12.8208,
0,-32.3079,-41.5386,-215.8977,32.3076,-45.6414,3.0767,0,17.564,17.4355,4.6152,58.9741,-6.1543,-10.7695,
5.8975,-28.9744,-44.8718,-212.5642,26.9229,-50.5129,-3.3335,3.8462,14.6152,25.3848,3.3335,60.2563,-5.3848,-8.9746,
-2.0513,-31.282,-45.1282,-218.4614,26.1538,-51.7949,2.564,2.0513,4.1025,21.0254,3.0771,60,-2.0513,-10.769,
1.0256,-32.3076,-43.0767,-224.6152,28.2053,-49.7434,2.0515,-1.0256,4.6155,10.7693,4.1028,50.2566,-7.1794,-17.9485,
1.0256,-30.7693,-35.8975,-212.8206,28.718,-38.4614,-1.0256,3.5896,2.5642,15.8972,6.1541,52.3079,-7.1794,-12.3079,
0,-15.7693,-33.8462,-205.1284,28.7178,-34.8718,-4.1025,5.1279,0,18.9741,1.5381,56.9229,-1.0259,-4.1025,
0.51294,-0.76929,-41.0256,-213.3333,30.2566,-40.5127,-5.6409,0.51294,3.5896,13.8459,-0.51294,51.282,-1.0256,-9.2307,
-8.4614,14.1025,-38.7178,-211.5383,30.5127,-33.0769,-0.25635,0.25635,3.8462,13.5898,1.2822,47.9487,-6.9229,-15.1279,
-2.8206,13.5896,-26.4104,-200.7693,29.4871,-24.8718,1.7947,1.282,2.8206,13.5896,-1.282,48.9744,-6.9231,-11.5383,
-4.6157,15.8975,-23.0771,-194.8718,29.7437,-32.8206,1.5386,-3.0771,13.333,14.3589,6.1538,49.7437,-1.5386,-6.1538,
-5.8977,14.615,-31.0259,-196.1541,27.9485,-43.3335,1.282,-1.282,16.1536,16.1536,9.9998,52.5637,-4.3591,-10.5129,
-1.0256,12.8206,-31.282,-196.9229,27.1794,-30.769,-2.051,1.0256,13.3337,15.385,4.6155,56.9231,-8.718,-12.3074,
-3.3333,11.0256,-19.7434,-188.9744,31.0256,-15.769,-1.7947,1.7947,18.2053,16.6667,11.0256,60.2566,-2.3079,-6.4104,
-0.25635,12.0513,-25.3848,-197.1797,27.4355,-27.949,-4.8721,0.25635,6.9229,12.564,8.9741,47.9487,-5.3848,-10,
-1.0259,8.7178,-24.1028,-198.4617,29.2305,-36.4104,0,4.6152,0.5127,16.4102,0,45.1279,-5.6411,-7.1797,
-3.5896,7.1794,-16.4104,-189.7437,27.6921,-22.5642,1.5383,2.051,5.6409,16.9231,-4.6155,49.2307,-1.5383,-8.2053,
-1.0256,8.718,-22.5642,-183.5898,26.1536,-14.8718,1.0256,-2.0515,14.8718,11.282,5.1282,54.3586,-1.0256,-11.282,
-10.769,2.0513,-29.7432,-185.6409,29.7437,-18.4614,2.5645,-3.5894,18.4619,11.7949,10.7695,61.0259,-2.0513,-8.2051,
-5.8972,5.3845,-28.9744,-196.6667,31.0256,-21.7947,2.3079,-2.3079,8.9744,13.0769,4.3591,55.1282,-5.8972,-11.0256,
-5.3845,3.8459,-24.8718,-196.6667,28.4617,-18.718,5.3845,-3.8459,11.5383,12.5642,7.4358,53.0769,-7.4358,-12.0515,
-5.3848,1.7949,-27.9487,-190.5129,24.8716,-19.231,6.4102,-1.7949,19.7437,15.1284,12.0513,59.7437,-2.8203,-5.8975,
0,3.5894,-36.4104,-198.9746,19.4868,-25.6414,-4.1025,0,12.3076,19.4868,6.6665,57.9487,-3.0771,-7.1797,
-9.4871,0.25659,-34.6155,-197.6924,21.282,-15.1282,-5.3845,0.76929,18.718,25.8972,10.5129,65.3845,-0.25659,-4.8718,
-5.3848,1.7949,-32.5642,-192.0513,23.8462,-11.5386,2.8203,-1.7949,27.436,20.2563,11.5386,66.9229,-2.8203,-4.3589,
0.25659,-0.25659,-30.5129,-191.0256,28.9744,-16.6667,9.9998,-1.7947,25.8972,18.2053,10.5129,64.3591,-3.3333,-7.4358,
-4.8718,-2.8206,-30.0002,-194.1028,27.4358,-16.1541,6.9231,2.8206,23.8459,22.3074,9.4871,63.3333,-2.8206,-8.9744,
-3.0769,2.5642,-31.7949,-195.3848,21.0256,-16.4104,-1.0256,1.0256,13.3333,15.3845,3.5896,58.4617,-8.2053,-10.7693,
-6.6667,1.0256,-27.1797,-183.5898,29.2307,-10.2566,3.0769,-1.0256,4.6155,13.3333,8.2048,62.051,-2.0515,-5.6409,
-2.564,4.1025,-27.1794,-186.6665,30.2563,-11.2817,-1.0254,0,0,14.3589,8.7183,56.4106,1.0259,-7.6924,
-0.25635,3.8462,-30.0002,-198.718,19.2305,-16.667,0.25635,-1.2822,1.7949,14.6152,2.8203,41.4106,-1.2822,-9.4873,
-4.8721,0.76904,-26.9231,-195.6411,21.2822,-11.5386,14.6152,-0.76904,4.8716,12.564,2.8203,40.2563,-1.7949,-5.3848,
0,-0.51318,-28.2051,-194.3591,20.5127,-12.8208,8.7178,0,1.5381,6.6665,6.1538,44.6152,-5.1284,-9.231,
-1.282,-6.9231,-26.9231,-196.1538,18.718,-14.1028,2.3079,1.282,4.8718,12.051,11.5383,44.3591,-1.282,-6.9231,
-0.25659,-3.8464,-25.8975,-197.1794,23.3333,-11.5383,5.3845,0.25659,0.76929,14.6155,5.8972,40.2566,-1.282,-6.9231,
0.76929,-1.282,-26.9233,-196.6667,24.3586,-7.4363,9.4871,-0.76929,6.4099,13.5896,2.3074,43.3333,-1.282,-8.4617,
-3.8464,-4.3591,-27.9487,-199.7437,18.2053,-10.5129,6.9231,-0.25659,18.718,16.1536,8.9744,44.3591,0.25659,-4.3591,
3.333,-0.76953,-31.5386,-209.4873,19.2305,-19.7437,-0.25635,0.25635,9.4868,14.6152,4.8716,34.1025,-2.8208,-6.9233,
-1.5386,-6.6665,-35.8975,-208.718,23.0771,-15.8975,1.0259,1.5386,2.564,13.3335,2.0513,35.3848,-1.0259,-10.2563,
-4.8718,-5.8977,-36.1538,-204.8718,19.2307,-6.9231,3.8459,0.76929,4.8718,13.0769,6.4104,43.3333,-0.76929,-8.9744,
-1.0256,1.0256,-30.2563,-200.5127,17.4363,-3.5896,7.1794,-3.0769,2.5642,12.3079,4.6155,49.2307,-2.051,-6.6667,
-3.0769,1.0256,-23.0769,-191.282,22.0515,-2.5642,10.2566,-5.6409,5.1282,21.0256,2.5642,53.8464,-1.0256,-3.0769,
0.51294,-0.51294,-30.2563,-198.4614,16.9231,-11.7947,2.0515,-6.1536,8.2053,17.4358,5.1282,42.0515,-7.1794,-9.7434,
-2.0513,-0.5127,-27.6924,-196.4104,16.4102,-3.0771,2.0513,0.5127,14.3589,15.3848,16.9229,49.2305,-1.5386,-10.2563,
-5.1284,0.5127,-26.1541,-192.8206,19.4873,3.5898,-2.0513,-0.5127,7.1792,17.436,10.2563,56.4102,-1.0259,-11.2822,
5.1284,2.0513,-27.1794,-195.3845,25.6411,-4.6152,0,-4.6152,0,18.4614,6.6665,47.1797,-4.1025,-7.6924,
1.0256,-1.5388,-23.5898,-191.7949,19.9998,-3.5901,12.3074,-1.0256,8.2048,22.051,15.3845,47.1794,-3.0769,-1.0256,
-3.3333,1.282,-30.0002,-193.5898,5.8972,-3.3333,1.7947,-1.282,4.3586,14.6155,4.3586,45.3845,-11.5388,-10.5129,
-1.7947,2.8206,-32.5642,-193.5898,17.1794,1.282,-5.3845,-0.76929,4.3591,14.6155,0.76929,48.4617,-4.8718,-9.4871,
-2.3079,0.76929,-31.5386,-197.1794,22.3079,0.25659,-0.25659,-3.8464,7.4358,16.6667,4.3591,48.4617,-0.76929,-5.3845,
-1.2822,-0.25635,-30.0002,-197.6924,12.0513,0.25635,1.2817,-6.9233,9.4868,17.1792,2.3076,44.3589,-10.5132,-10,
-6.6667,-4.1028,-26.1541,-189.7437,14.3586,10.7693,4.1023,-3.0769,12.3074,19.4871,3.0769,47.6921,-9.7439,-9.7439,
-0.76904,0.25635,-28.4614,-193.5898,15.1284,8.9741,2.3076,-2.8203,-0.25635,12.564,2.3076,45.3848,-5.3848,-8.4614,
1.5383,4.1028,-25.1282,-194.8718,13.3333,9.7434,-2.5642,-4.6155,-1.5383,13.8459,7.6921,48.2053,-2.051,-5.6409,
-4.8716,1.7949,-25.3843,-193.5896,12.0513,7.436,-1.7949,-4.8716,2.3076,16.667,5.8975,47.436,-4.3589,-5.3843,
0.5127,1.5386,-28.2051,-197.9487,11.2822,-0.5127,10.2563,-2.564,-1.5386,14.8716,4.6152,42.564,-5.6411,-6.6665,
-1.7949,-2.8203,-23.8462,-199.7437,16.1538,1.7949,16.6665,-2.8203,1.7949,16.1538,12.564,46.9229,-3.3335,-5.8975,
1.7947,-0.76929,-24.8718,-202.8206,16.6667,0.76929,2.3074,-7.4363,-2.3079,12.5637,7.9485,43.8459,-5.3845,-10.0002,
1.5386,1.0259,-22.0513,-197.4358,14.3589,-0.5127,1.0259,-6.6665,-1.5386,15.3848,0.5127,44.1025,-3.0767,-8.2051,
-6.4102,0.25635,-16.1538,-192.5642,13.5898,-0.25635,10.5127,-7.436,10,16.6665,0.25635,47.436,-10,-8.4614,
2.5645,2.5645,-16.4102,-202.564,7.6924,-2.0513,2.0513,-9.7432,11.2822,15.3848,-3.0767,46.667,-20,-15.3843,
2.3076,-0.25635,-13.0771,-207.9487,8.4614,2.8203,-6.4102,-4.8721,6.9229,24.3589,0.25635,54.1025,-11.5386,-9.4873,
1.7949,2.3076,-15.1279,-209.4871,15.6411,-2.3076,-6.4102,-1.7949,4.3589,23.3335,5.3848,52.564,-3.8462,-6.4102,
3.3333,0.76929,-20.7693,-210,17.1794,-11.0256,-0.76929,-1.282,6.4104,19.7434,11.5383,42.3079,-2.3079,-5.3845,
-0.5127,-3.5898,-21.5383,-216.9231,10.2563,-13.333,0.51269,0.51269,9.231,21.0259,16.4102,35.8975,-2.0513,-3.0767,
3.8464,-0.25659,-25.3845,-223.8462,4.3591,-15.1282,-8.4617,0.25659,7.4358,17.1794,12.5642,34.1028,-3.8459,-8.9744,
1.2822,-1.7949,-26.9229,-216.6665,7.9487,-8.4614,-8.4614,-0.25635,2.8208,18.7183,11.0259,36.667,0.25635,-5.8975,
4.3591,0.76929,-25.8975,-214.1025,8.9744,-6.9231,0.25659,-0.25659,-10.5129,16.6667,7.4358,22.8206,-3.3333,-2.8206,
5.3845,1.282,-23.3333,-214.1025,8.4617,-3.8459,5.8977,-1.282,-9.4871,11.5383,1.7952,16.6667,-7.4358,-7.4358,
-2.0515,-1.5383,-20.0002,-206.6667,12.8206,4.1023,4.6155,-1.5383,3.0769,17.4358,1.5383,31.282,-4.1028,-7.1794,
2.564,2.0513,-23.0771,-202.0513,12.8203,5.6411,-2.564,-4.6152,-2.0513,17.436,2.0513,32.3076,-6.6665,-6.6665,
0.25635,-0.76904,-20.2563,-196.6667,12.564,12.564,3.8462,-3.8462,-0.25635,17.1797,6.4102,36.6665,-6.4102,-3.8462,
-1.5386,-2.564,-23.5898,-206.1538,6.1538,8.7178,1.5386,-2.0513,4.6152,16.4102,4.1025,45.6411,-7.6924,-8.7178,
1.0254,0,-29.231,-209.7437,4.6152,0,-7.6924,-5.6411,2.0513,13.3335,6.6665,49.7437,-8.7178,-11.2822,
-2.8206,4.8718,-21.282,-196.6667,12.051,6.9231,-0.25659,0.25659,-0.76929,16.1536,11.5383,47.9485,-3.3333,-3.3333,
0.51294,7.1794,-20.0002,-201.0256,4.6155,7.6921,-0.51294,2.5642,-9.2307,13.8459,-1.5383,33.3333,-10.7693,-8.2053,
-0.25635,2.8203,-20.769,-201.282,2.3076,14.6152,0.25635,-3.3335,-0.25635,19.7437,1.7949,41.7949,-10.5127,-8.4614,
-2.0513,3.5898,-28.2053,-200,2.0513,12.3076,-5.1284,-8.2051,5.1279,17.9487,4.6152,52.3076,-11.2822,-7.6924,
6.4102,7.436,-26.9231,-204.3589,3.3335,4.3589,-5.8975,-1.2822,1.2822,14.1025,-1.7949,45.8975,-14.1025,-5.3848,
-0.5127,0,-20.5127,-207.1794,5.6411,3.0771,0,-3.0771,1.5386,17.436,1.5386,41.0259,-13.3335,-4.6152,
1.7947,2.3079,-22.8206,-207.4358,5.3845,-0.25659,-3.8459,-12.0515,0.25659,13.0769,2.8206,40.7693,-13.5896,-13.0769,
2.564,2.564,-22.5645,-201.5386,7.1792,4.1025,-5.1284,-9.231,0,11.7949,0,37.4355,-11.2822,-13.8462,
0.25635,2.3076,-19.7437,-196.1541,7.9487,13.5894,-1.2822,-3.3335,1.2817,15.6406,-0.25635,33.0767,-8.4619,-6.9233,
6.1541,6.1541,-20.5129,-199.4871,6.6667,16.9231,1.0256,-3.5896,-1.0256,16.4104,-1.5383,39.4871,-7.6921,-5.1282,
-0.51294,2.0515,-21.5383,-198.4614,4.6155,14.3591,0.51294,-4.1023,2.0515,15.8977,-1.5383,49.2307,-7.6921,-7.1794,
2.3079,4.3591,-20.7693,-196.1538,2.8206,4.8718,-6.4104,-2.3079,-0.25659,19.2307,0.25659,47.4358,-8.4617,-7.4358,
0.25659,4.3591,-14.6155,-191.5386,4.8718,4.8718,-7.4358,-1.7947,-0.25659,24.8718,6.4104,50.5129,-8.9744,-5.3845,
-5.1282,5.1282,-11.282,-183.5898,6.6667,18.4617,-6.6667,-5.6409,8.2048,18.4617,7.6921,53.3333,-13.8464,-7.6926,
-0.51294,8.2053,-15.3845,-180.5127,6.6667,20.5129,-15.3845,-11.7947,4.1028,11.282,0.51294,42.5642,-17.9485,-15.3845,
-3.0769,8.718,-7.6921,-167.6921,12.8206,23.0769,-7.1794,-8.2053,3.0769,22.0515,5.1282,47.1794,-8.718,-9.7434,
-3.3333,11.5383,-9.4871,-171.0256,12.0515,19.2307,-0.25659,-7.9485,0.25659,17.1794,2.3079,44.3591,-11.5383,-10.5129,
-1.5383,10.7693,-17.949,-184.1025,13.8459,4.2307,-2.0515,-7.6926,7.6921,14.8718,4.1023,34.8718,-7.6926,-9.2307,
-0.51294,11.282,-20,-185.1282,16.9231,-5.6409,-1.0256,-1.0256,16.9231,24.6155,8.718,31.7947,0.51294,-4.6155,
-0.5127,6.6665,-23.5898,-181.0256,7.1797,9.231,-6.6665,-7.1792,8.7178,16.4102,0.51269,28.7178,-13.3335,-15.3848,
-7.9485,1.282,-14.6155,-170.5127,12.0515,24.231,-1.282,-8.4617,12.5642,13.0769,7.4358,41.7947,-9.4871,-12.051,
-7.9487,3.8462,-15.6411,-179.7437,12.0513,18.2051,-3.3335,-7.9487,4.8716,14.1025,3.3335,40.769,-7.9487,-12.564,
2.8206,11.0256,-13.0769,-178.2051,9.4871,7.9485,-3.3333,-2.3079,1.282,21.7947,-1.282,38.718,-10.0002,-10.5129,
-1.7947,10.5129,-3.3333,-163.2051,10.0002,22.9485,0.76929,-0.76929,3.3333,21.7952,-1.7947,47.4358,-5.3845,-2.3074,
2.0513,17.436,-1.0254,-157.9487,14.3589,35.3848,0,0,-3.0767,21.0259,-1.5386,48.2051,-3.5898,-0.5127,
0,14.3589,-4.6152,-162.051,16.9233,32.3076,-1.5381,-1.5381,0,25.6411,3.5898,38.4619,-3.0767,-5.1279,
-1.282,11.0256,-10.5129,-167.436,6.9231,25.8972,-6.4104,-6.9231,5.3845,15.6409,1.282,28.4612,-7.4358,-15.1282,
-0.76929,10.5129,-10.5129,-166.9231,0.76929,22.8206,-7.4358,-10.5129,4.8718,7.4358,0.76929,35.6409,-11.0256,-14.1028,
-4.8718,8.4617,-9.4871,-162.8206,8.9744,27.9485,-9.9998,-7.9485,2.8206,13.5896,6.4104,47.4358,-11.5383,-2.8206,
-1.5386,10.2563,-14.8721,-166.1538,5.6411,22.564,-17.9487,-9.231,1.5386,14.3589,2.0513,38.9741,-14.8721,-8.7178,
-2.3076,12.0513,-6.9229,-155.1282,2.3076,32.564,-5.3848,-3.3335,16.5386,20.769,8.9741,49.4873,-5.8975,-5.8975,
-3.5898,14.8716,-4.1025,-150.2566,2.0513,40,-7.1797,-2.0513,26.6665,17.9487,13.333,59.4868,-8.7183,-5.1284,
-1.282,16.1541,-4.3586,-152.051,1.282,34.6155,-16.6663,-4.3586,21.282,14.6155,10.5129,56.1541,-14.615,-9.4871,
-9.2305,11.2822,0,-147.6921,0,27.1797,-13.8462,-5.1279,22.0513,22.0513,7.6924,53.3335,-12.3076,-9.7437,
-1.7949,14.6152,-0.25635,-155.6411,0.25635,17.1797,-13.0771,-6.4102,7.0513,17.6924,4.8716,40.2563,-12.564,-12.564,
-0.51294,12.3079,0.51294,-160,2.5642,14.3591,-13.3333,-6.6667,-7.9487,11.282,3.5896,27.6921,-12.8206,-13.8464,
-1.0256,13.8464,-2.051,-153.3333,1.0256,16.4104,-8.2048,-5.1282,2.0515,14.8718,2.5642,27.1794,-14.3586,-15.3845,
1.5386,13.8462,-11.2822,-155.8975,-1.5386,16.4102,-8.2051,-9.7437,6.1538,13.8462,1.5386,32.3076,-15.8975,-16.9233,
-0.51269,10.769,-9.231,-150.7693,0.5127,24.6152,-9.7437,-8.2051,3.0767,14.8716,9.7437,37.9487,-8.7183,-6.1538,
7.4358,16.6667,-4.8718,-148.4614,-2.8206,26.4104,-11.0256,-3.3333,2.8206,16.1541,11.0256,28.9744,-7.9485,-4.8718,
2.8203,13.0771,-7.9487,-154.1025,-2.8203,23.3335,-10,-3.3335,10,16.6665,7.9487,23.8462,-11.0254,-11.0254,
-0.51294,11.7952,-8.2048,-151.7949,0.51294,18.9744,-5.6409,-2.051,12.8206,16.9231,10.7693,28.2053,-10.7693,-8.718,
3.8462,14.6157,-3.8462,-149.4871,-3.8462,13.5898,-7.9487,-3.8462,7.9487,16.667,12.0513,24.3589,-8.4614,-7.4355,
-2.0513,15.3848,2.0513,-145.6411,-5.1284,21.0254,-10.2563,-3.5898,13.333,24.6152,11.2817,31.2817,-2.0513,-3.5898,
1.5383,20.5129,-1.5383,-146.1538,-7.1794,19.9998,-16.4104,-3.0769,9.7434,23.0769,2.051,39.9998,-10.2566,-7.1794,
1.282,14.6155,-1.282,-142.8206,-4.3591,17.6921,-14.1028,-2.8206,7.4358,16.6667,4.3591,37.6921,-15.6409,-11.0256,
-2.0513,10.7695,2.0513,-146.6665,-3.5898,12.8208,-8.2051,-2.564,11.2822,16.9233,10.7695,35.3848,-7.6924,-5.6411,
2.5642,14.8718,-2.5642,-158.9744,-9.2307,10.7693,-16.9231,-8.2053,6.6667,15.8972,5.6409,36.4104,-9.7434,-5.6409,
0,12.3076,0,-154.3589,-5.6411,17.9487,-15.3848,-8.2051,11.2822,18.9746,6.6665,38.4614,-12.3076,-7.1792,
6.4104,12.5642,3.8459,-150.5129,-5.8972,2.9487,-13.0769,-5.8972,9.9998,18.718,3.8459,25.8972,-11.0256,-12.5642,
6.9229,14.1025,5.3843,-150.0002,-8.9746,-12.0513,-14.6157,-5.8975,4.3589,23.333,5.8975,30,-4.3589,-8.9746,
-0.76929,19.7434,0.76929,-146.4104,-10.5129,2.9487,-15.6414,-3.8464,7.4358,28.9744,12.5637,45,-2.3079,-0.76929,
4.6155,25.6409,-4.6155,-142.5642,-20.0002,17.9487,-23.0769,-4.6155,5.6409,19.4871,6.6667,45.6409,-11.282,-4.6155,
-0.51294,14.8718,0.51294,-140,-24.1023,29.7439,-22.051,-7.1794,1.5383,14.8718,3.5896,32.3079,-12.3079,-7.6921,
2.5642,15.3845,5.1282,-147.1797,-16.4104,29.2307,-15.3845,-2.5642,-3.0769,16.9231,4.6155,23.5896,-5.6409,-8.2053,
4.1025,16.9229,0,-151.2822,-18.9746,29.2305,-16.4102,0,-3.0771,16.4102,4.1025,28.7178,-3.5898,-7.1797,
-2.0513,15.8975,-2.564,-148.718,-27.6924,20.5127,-21.5386,-0.5127,2.0513,21.0259,8.2051,37.436,-1.5386,0.5127,
4.3591,18.2053,-4.8718,-155.1282,-25.8975,12.5642,-28.4617,-0.25659,-6.4104,22.3079,8.9744,24.3591,-5.8977,0.25659,
0.5127,14.8716,0,-147.6926,-16.4106,21.5381,-21.0259,0,-4.6157,23.0767,9.2305,23.0767,-5.1284,-3.0771,
-0.51294,18.9744,3.5896,-135.3845,-17.9485,30.2566,-13.8459,-2.051,0.51294,22.5642,9.7434,30.2566,-3.0769,-6.6667,
4.1028,22.0515,-1.0256,-137.9487,-23.5896,28.2053,-17.4358,-2.051,1.0256,21.5383,11.282,31.282,-1.5383,-5.6409,
-1.5386,16.9229,-4.1025,-141.5386,-23.5898,25.1279,-22.0513,-0.5127,1.5386,21.5386,9.7437,31.7949,-1.5386,0.5127,
3.3333,17.1794,-4.8718,-147.4358,-25.3845,17.6926,-25.8975,-0.76929,-0.76929,20.7693,7.949,24.3591,-5.8972,0.76929,
1.0256,12.8206,-5.6409,-152.3076,-29.2307,12.8206,-27.1794,-1.0256,3.0769,21.5388,12.3079,17.4363,-4.615,-1.5383,
-0.25635,19.7437,-6.9229,-144.3589,-27.4358,19.7437,-27.9487,0.25635,6.4102,19.231,8.9746,18.2051,-2.3076,-3.8462,
0.76929,25.8977,-6.4099,-133.0769,-27.4358,31.5388,-28.9744,-0.76929,4.3591,16.6667,3.3333,22.3079,-6.9231,-7.4358,
-2.8208,23.333,-0.25635,-130.5129,-26.4102,38.2051,-24.8721,0.25635,9.4868,23.333,11.5381,31.5381,-2.8208,-1.7949,
2.3076,22.8208,-2.3076,-140.2563,-31.5381,23.3335,-28.4614,-3.333,3.8462,19.231,6.4102,22.3076,-6.4102,-5.3843,
-0.5127,16.9233,1.0259,-142.0513,-33.8462,14.3589,-25.1279,-4.6152,0.5127,17.436,4.6152,10.7695,-8.2051,-5.6411,
0.76904,16.6665,4.3589,-144.8718,-34.6155,14.6152,-25.3848,-0.76904,-2.8203,19.7437,12.0513,7.436,-4.3589,-1.2822,
6.1538,18.9741,0,-144.6155,-35.8977,20,-31.7952,-3.0771,-11.2822,15.3843,7.6919,8.7178,0,-4.6157,
-2.3076,15.1284,2.3076,-133.5898,-30,30.5127,-21.2822,-6.9229,-7.436,18.2051,6.4102,18.2051,5.3848,-3.8462,
1.2822,15.6411,0.25635,-145.3845,-32.564,18.7183,-14.6152,-7.9487,-6.4102,13.5898,8.4619,12.5645,-0.25635,-4.3589,
2.8208,9.4873,-5.3848,-160.3845,-38.7178,3.7183,-22.3076,-6.4102,1.7949,14.1025,14.1025,3.3335,-1.7949,-2.8203,
1.282,9.9998,-5.8977,-162.8206,-40.7693,0.25659,-27.9487,-4.8718,10.5129,22.3079,20.7693,-4.3591,2.8206,-0.25659,
8.2051,21.0254,-2.0513,-155.3848,-37.949,6.1538,-22.0513,-5.1284,-2.5645,17.4355,18.4614,-14.8721,4.6152,2.0513,
-0.51294,22.0515,3.5896,-141.5383,-29.2307,16.4104,-15.8972,-1.0256,-16.4104,15.3845,10.2566,-10.7693,7.1794,0.51294,
1.5383,22.5642,2.5642,-133.8462,-27.6921,21.0256,-24.6155,-1.5383,-14.8718,13.8459,3.5896,-6.6667,5.1282,-5.1282,
2.8206,17.1794,2.8206,-135.6409,-31.0256,26.4104,-24.3586,-6.4099,-14.1023,10.0002,7.4363,-4.3586,6.9231,-2.8206,
0.25659,17.1794,4.3591,-137.6924,-33.0769,25.8972,-17.6921,-2.3079,-23.3333,14.1028,9.4871,-2.8206,8.4617,-0.25659,
5.1284,23.0771,0.5127,-136.9231,-31.7949,18.9746,-23.5898,-0.5127,-21.5386,15.8975,6.1538,-3.0767,5.6411,-0.5127,
-5.6411,12.3076,2.0513,-133.8464,-33.3335,22.564,-20.5132,-8.7183,-12.8208,9.7437,3.5894,-2.0513,3.5894,2.564,
0.25659,14.6155,6.4104,-133.0769,-37.6924,26.4104,-16.6667,-7.4358,-17.1794,10.0002,2.3079,-3.3333,-0.25659,0.76929,
7.1794,20.5129,10.2566,-133.3333,-38.4614,21.0256,-22.5642,-0.51294,-24.1025,20.0002,4.1028,-8.718,0.51294,-0.51294,
-0.76929,14.1023,4.8718,-140.2566,-40.7693,16.1536,-25.8977,-3.3337,-30.5129,14.615,0.76929,-19.2307,1.282,0.76929,
4.1025,13.8462,-1.5386,-142.564,-38.9744,14.8721,-23.0767,-5.1279,-23.0767,6.1538,4.1025,-21.0254,3.0771,1.5386,
-1.282,12.5642,1.282,-133.0769,-35.1282,17.6921,-17.6921,-3.3333,-13.0769,9.9998,9.9998,-14.6155,7.9485,2.8206,
-1.0256,19.9998,7.1794,-127.6924,-34.8721,21.5383,-15.8977,-1.0256,-25.6414,7.6921,1.0256,-18.9744,5.1282,2.051,
0.25635,21.7949,7.436,-122.8203,-34.6152,28.4619,-18.2051,-2.3076,-29.4868,5.8975,-0.25635,-20.769,1.2822,3.8462,
-3.8462,18.7183,6.9233,-115.1282,-37.1794,32.5645,-21.7949,-7.4355,-17.6924,7.9487,4.8721,-15.1279,3.8462,4.3589,
5.1279,24.6152,9.231,-114.3591,-37.436,29.231,-19.4873,-5.1284,-22.0513,3.0767,-2.0513,-17.9487,5.1279,2.0513,
-0.76929,18.2048,4.8718,-118.718,-37.1797,29.9998,-15.6414,-3.8464,-22.3079,4.8718,0.76929,-20.7693,6.9231,3.3333,
-2.0513,18.9746,2.0513,-121.0254,-36.9229,31.7949,-17.4355,-6.6665,-16.4102,14.3594,8.7183,-15.8975,8.7183,6.667,
3.3335,20.769,8.4614,-123.8462,-36.1538,28.4614,-19.231,-5.8975,-30.5129,13.0771,-3.3335,-19.231,5.3848,3.8462,
1.7947,19.7434,15.6409,-121.7949,-30.0002,31.0256,-15.1282,-0.76929,-34.6155,7.9485,-10.0002,-25.3845,6.9231,0.76929,
3.3335,23.3335,15.6411,-126.4102,-27.436,27.9487,-12.0513,-5.3848,-27.9487,6.4102,0.76904,-28.9741,12.564,-0.76904,
-4.3589,17.6924,13.5898,-122.8206,-33.0771,24.8716,-11.5386,-7.9487,-18.7183,8.9741,13.0767,-25.3848,19.2305,4.3589,
-4.6155,15.8977,8.2053,-118.4614,-40.5127,15.3845,-19.9998,-5.6409,-16.4104,5.1282,6.1541,-31.7949,12.8206,4.6155,
4.3591,17.1794,13.5896,-120.7693,-25.5127,12.5642,-12.5642,-3.3333,-21.282,6.4104,-4.8718,-35.1282,13.5896,3.3333,
-2.0513,12.3081,24.1025,-120.5127,-10.5127,16.4106,2.0513,-4.6152,-32.3076,6.667,-3.5894,-37.9485,19.4873,4.1025,
1.7949,21.2822,21.7949,-117.1794,-15.6411,8.9746,-4.8716,-7.9487,-40.769,0.25635,-0.25635,-51.0256,17.1797,1.2822,
-1.282,23.8459,20.2561,-107.9487,-22.3079,10.5129,-10.0002,-10.5129,-35.6411,1.282,1.7947,-48.4617,18.718,2.8206,
0.76929,23.3333,27.9485,-99.7437,-13.5896,22.3079,-0.76929,-4.3591,-33.5898,4.3591,-0.76929,-36.6667,21.7947,6.9231,
5.3843,19.2305,28.9741,-100.2566,-15.6411,16.6665,0.25635,-5.8975,-39.7437,-0.25635,-5.3848,-40.7693,16.1538,0.76904,
-5.8972,15.1282,31.0256,-95.1282,-17.6921,11.5388,0.76929,-9.9998,-35.6409,1.282,-0.76929,-38.7178,15.1282,3.8464,
-0.5127,20,27.6924,-98.9744,-19.4873,10.769,-6.1538,-9.231,-31.2822,0.5127,1.0254,-40.5129,14.8716,4.1025,
-1.0256,14.8718,21.0256,-104.6155,-23.0769,9.2307,-10.7693,-9.2307,-25.1282,1.0256,4.1023,-47.6924,18.4617,3.0769,
-3.8459,14.1028,23.8459,-102.3076,-17.1794,10.5129,-4.8718,-6.9231,-21.7947,3.8459,4.3591,-46.4102,23.3333,10.0002,
2.3076,16.1538,25.8975,-104.3589,-15.6411,9.4873,-6.4102,-8.4614,-27.436,0.76904,-0.76904,-47.9487,16.6665,7.436,
-3.8464,9.4871,28.4617,-104.8718,-18.718,8.4617,-0.76929,-10.5129,-23.3333,0.76929,2.8206,-48.9744,16.6667,6.9231,
-2.564,11.2822,27.6924,-103.5896,-21.0254,6.667,6.1543,-9.2305,-24.6152,-2.0513,2.0513,-52.3074,21.0259,3.5898,
-0.51294,11.282,27.1794,-96.4102,-15.8972,18.4617,6.1541,-8.2048,-25.6409,-0.51294,0.51294,-44.6152,22.5642,2.5642,
-1.7949,11.5386,26.4102,-89.4871,-15.6411,23.3335,-0.25635,-10.5127,-19.7437,2.3076,0.25635,-40.7693,22.3076,5.8975,
5.8975,19.2305,27.436,-86.4104,-19.231,10.5127,-0.25635,-7.9487,-25.3848,-1.2822,0.25635,-54.1025,22.3076,4.8716,
0.5127,11.7949,30.769,-85.1282,-18.9746,6.6665,3.5898,-5.6411,-37.436,-3.0771,-0.5127,-64.6155,22.564,6.1538,
3.0769,12.3079,33.3333,-88.2051,-15.8977,10.2566,1.0256,-5.1282,-40,-1.0256,-5.6409,-65.6411,21.5383,5.1282,
0.76929,15.1282,33.5896,-87.436,-17.1794,8.9744,4.8718,-4.8718,-26.4104,-0.76929,-2.3079,-62.8206,23.8459,3.3333,
-5.6411,9.7437,26.6665,-86.6667,-21.5386,7.6924,4.1025,-7.1797,-23.5898,-4.1025,5.1279,-68.718,26.6665,5.6411,
2.564,11.7949,25.6411,-88.7178,-20.5127,7.6924,0.51269,-7.1792,-38.5898,-4.1025,-0.5127,-73.3333,27.1797,9.7437,
-3.5894,9.7437,35.3848,-84.1023,-16.4102,4.6157,8.7183,-4.1025,-32.8203,2.0513,-2.0513,-66.1536,26.1538,12.8208,
-0.25635,13.5898,36.6665,-83.3333,-19.7437,-1.2822,10,-3.8462,-20.2563,0.25635,8.4614,-66.9231,24.8716,12.0513,
2.8206,11.5383,30.5129,-84.3591,-27.4358,0.76929,-0.76929,-9.4871,-29.4871,-5.3845,7.9485,-73.0769,28.4617,11.0256,
-0.25635,13.0771,34.6152,-72.564,-23.8462,14.1025,2.8203,-4.8716,-31.0254,0.25635,-0.25635,-64.8718,33.5898,11.0259,
5.3848,19.7437,32.5645,-71.0254,-21.2817,19.7437,3.8462,-3.8462,-30,-3.8462,-6.9229,-60.2561,25.8975,6.4106,
0.25659,14.1023,31.5383,-74.1025,-21.7952,21.7947,3.3333,-11.0256,-35.1282,-6.9231,-0.25659,-57.6924,26.9231,11.0256,
-0.25635,11.0259,31.0259,-79.2307,-23.333,10,2.8208,-12.564,-42.8203,-7.9487,0.25635,-65.3845,27.9487,11.5386,
6.6667,9.2307,30.7693,-83.0769,-21.0256,3.0769,5.6409,-6.1541,-37.436,-6.1541,-3.0769,-69.7437,31.7947,13.3333,
1.7949,1.7949,25.8975,-86.4102,-26.4102,2.8203,2.8203,-5.8975,-35.6411,-1.7949,-4.3589,-64.8718,34.1025,17.1797,
6.1538,6.1538,23.0771,-87.6921,-31.2817,0,0.51318,-4.1025,-42.564,0,-2.564,-65.6409,29.7437,16.9233,
-0.25635,5.3843,27.4355,-87.9487,-24.3589,4.8716,5.3843,-1.2822,-40.2566,0.25635,-1.7949,-66.9231,32.564,17.1792,
0,10.2563,26.6665,-89.231,-24.1025,5.6411,4.1025,0,-34.8718,0,-2.0513,-68.2053,34.3589,18.4614,
6.9231,12.5637,23.3333,-86.9233,-34.1028,-0.76929,-2.8206,0.76929,-35.1284,1.282,-1.282,-73.0771,24.8718,19.2307,
-0.25659,6.9231,24.8718,-84.8718,-36.6667,0.25659,-5.8977,0.25659,-43.3335,0.76929,-3.3333,-78.718,26.4104,22.3079,
7.6924,17.9487,26.6665,-85.6411,-28.718,2.564,-2.564,5.6411,-46.6667,-5.6411,-6.667,-80.5129,38.9741,23.0767,
3.3333,14.1028,24.3591,-86.9231,-25.8972,-1.282,1.7947,1.282,-39.7437,-10.5129,-10.0002,-80.2563,34.1028,18.2053,
3.8462,11.0259,27.9487,-80.769,-25.3843,1.7949,8.9746,-1.7949,-39.2307,-4.3589,-8.4614,-80.769,30.5127,18.7183,
11.5381,14.6152,26.9229,-82.8206,-27.949,0.25635,3.8462,-0.25635,-47.436,-3.3335,-6.9233,-87.436,31.0254,15.1279,
5.1279,11.7949,26.1538,-82.5642,-27.1797,-2.0513,2.0513,3.0767,-38.9744,-2.564,-2.0513,-82.5642,32.8203,15.3843,
6.6665,12.8203,23.0767,-86.667,-29.7439,-6.1543,2.0513,2.0513,-37.436,-2.0513,-3.5898,-82.5642,33.8457,21.5381,
3.0769,9.7434,18.9744,-90.7693,-33.3333,-4.1028,-0.51294,0.51294,-38.9744,0.51294,-2.5642,-83.0769,35.3845,27.1794,
0.76929,8.9744,17.1794,-88.4617,-34.6155,-0.76929,-1.282,2.3079,-33.5898,0.25659,-0.25659,-78.2051,32.5642,21.7947,
9.7437,12.8203,21.5386,-87.1794,-33.8462,-7.6924,2.564,2.564,-34.8718,-4.1025,-2.564,-75.8975,30.2563,18.9741,
3.5898,8.7178,24.6152,-85.6411,-33.8462,-11.7949,5.6411,2.564,-36.9231,-2.564,-3.0767,-73.8462,34.3589,25.6411,
5.3848,13.0767,21.2822,-84.8718,-35.1282,-10.5127,3.3335,2.8203,-36.1538,-2.8203,-7.9487,-79.7437,35.1279,22.8203,
7.9485,16.6667,22.3079,-81.282,-32.0513,-6.4104,11.5383,2.3079,-34.6155,-2.3079,-11.0256,-82.3076,40.7693,23.8459,
7.4358,14.1023,23.8459,-86.9231,-34.6155,-10.5129,12.051,2.8206,-43.3335,-2.8206,-11.5383,-85.3848,37.6921,24.8718,
14.6155,15.1282,22.8206,-96.1538,-37.6921,-18.2048,4.8718,5.3845,-52.564,-4.8718,-12.051,-93.0769,31.0256,19.7439,
5.8975,12.0513,25.3848,-89.4873,-32.5642,-11.5386,8.4614,4.3589,-43.8462,-5.3848,-4.3589,-90.5129,40.769,21.7949,
6.4102,15.1284,25.3848,-87.9487,-34.6155,-14.6152,6.9229,-0.25635,-34.1025,-7.9487,0.25635,-80.2563,41.2822,21.7949,
10.5127,12.0513,22.3076,-91.5386,-42.3076,-21.2822,1.2822,-1.2822,-26.4104,-2.3076,2.8203,-70.5129,34.6152,22.3076,
3.8459,2.8206,13.5896,-93.5898,-46.9231,-20.2566,-2.3079,1.282,-32.0513,0.25659,-0.25659,-75.6411,29.9998,21.7947,
10.2566,4.6155,10.7693,-88.718,-41.5383,-15.8972,5.1282,7.1794,-47.0513,-4.6155,-12.3079,-81.5383,29.7434,18.9744,
12.3076,-2.0513,20,-75.3845,-30.7693,-8.7178,18.9741,11.2822,-47.1794,2.0513,-11.2822,-69.7437,37.9487,33.8462,
14.1023,-12.5642,17.1794,-77.6924,-37.1794,-9.4871,11.5383,8.9744,-32.1794,2.3079,-2.3079,-71.0256,36.1536,39.2307,
17.6921,-19.7434,14.1023,-80.2563,-42.3076,0.76929,8.4617,12.051,-26.9231,-1.282,-0.76929,-74.1025,37.6921,31.0256,
11.5386,-32.5642,18.7178,-78.2051,-41.282,1.2822,14.6152,12.0513,-41.9231,-1.2822,-15.1284,-74.6155,39.7437,31.0254,
24.3591,-28.9744,29.9998,-73.0769,-36.6667,-4.3591,19.2307,13.5896,-46.4104,4.3591,-15.1282,-79.2307,40.2566,39.7434,
18.718,-42.3076,29.9998,-75.6411,-44.8718,-0.25659,16.6667,9.4871,-38.718,0.25659,-4.3591,-86.9231,35.1282,30.5129,
15.8972,-48.7183,29.7434,-81.0259,-51.2822,3.0769,19.4871,10.2561,-37.436,-4.1028,-3.0769,-86.1541,32.8201,25.6409,
27.1797,-43.0769,36.4102,-82.5642,-45.6411,-6.1538,26.6665,13.8462,-30.7693,0,0,-92.3076,42.564,34.3589,
20.2566,-47.9487,34.6155,-85.8975,-57.6921,-20.7693,21.7952,7.949,-27.4358,-4.3591,4.3591,-107.3076,44.3591,30.5129,
22.8206,-43.3333,33.0769,-86.4104,-72.6921,-27.9487,15.6409,6.9231,-30,-6.4104,6.4104,-112.5642,39.2307,22.8206,
17.9487,-45.1284,36.9229,-88.2053,-67.6924,-25.6411,20,7.6924,-29.7437,-0.5127,0.5127,-97.5642,37.436,29.7437,
27.6921,-34.8718,40.5129,-89.2307,-52.6924,-21.5386,31.282,16.9231,-25.1282,4.6155,-4.6155,-82.5642,41.5383,42.051,
38.2053,-26.9231,39.7434,-88.4614,-47.9487,-33.0769,32.0515,18.2053,-23.3333,2.8206,-2.8206,-85.8975,44.3591,40.2566,
23.2053,-35.6411,41.2822,-83.8462,-56.1538,-42.3079,29.4873,7.9487,-25.3848,1.2822,-1.2822,-81.7949,44.3589,35.1279,
32.8206,-25.6411,44.1028,-81.5386,-48.718,-38.9744,33.3333,11.282,-31.282,2.5642,-2.5642,-77.9487,43.0769,39.4871,
36.9233,-22.564,43.5898,-77.9487,-45.1282,-37.9487,35.8975,14.8721,-32.3076,2.0513,-2.0513,-76.4102,38.4614,41.0259,
32.5642,-22.3079,42.8206,-71.0256,-42.3076,-41.7949,37.1794,13.5896,-27.436,2.8206,-2.8206,-74.6155,36.1536,35.6409,
42.8208,-13.5894,48.9746,-67.4358,-36.1536,-44.8716,41.2822,18.2051,-28.4614,5.8975,-5.8975,-78.2048,38.7183,37.6924,
36.1536,-17.6924,51.5383,-68.9744,-38.718,-57.1797,41.7947,19.7434,-30.5129,5.3845,-5.3845,-83.8462,42.3074,43.3333,
34.8716,-21.0256,44.6152,-74.3589,-42.0513,-72.1797,35.3848,15.8975,-19.4873,0,0,-86.6667,41.0254,34.8716,
30.5129,-28.9744,37.6921,-78.718,-45.3848,-84.8718,29.4871,8.9744,-12.5642,0.25659,-0.25659,-86.9231,34.1023,26.4104,
31.282,-20.5129,42.5642,-73.8462,-42.0513,-82.5642,35.8972,9.2307,-20.5129,5.1282,-5.1282,-81.0256,32.8206,33.3333,
36.9231,-10.2561,46.1541,-66.1538,-38.4614,-79.4871,40.0002,9.2307,-23.0769,4.6155,-4.6155,-67.1794,41.0256,35.3845,
21.9231,-25.2561,35.1282,-72.5642,-48.9744,-81.282,32.051,6.4104,-17.6921,7.4358,-6.4104,-59.7437,45.3845,28.4617,
24.6155,-23.5898,27.1794,-83.5898,-55.8975,-88.718,24.1028,10.7693,-17.9485,10.7693,-10.7693,-64.1025,40.0002,30.2566,
30,-16.6667,30.5127,-80.7693,-44.3589,-84.8718,25.8975,13.0771,-18.2051,7.9487,-7.9487,-67.4358,38.2051,37.6924,
29.2307,-14.3591,31.7947,-73.3333,-40.5129,-70.7693,26.6667,12.3079,-17.9487,5.1282,-5.1282,-71.282,39.4871,35.3845,
36.4102,-8.2051,34.8716,-66.1538,-46.6667,-69.2307,25.6411,13.3335,-14.8716,2.564,-2.564,-77.9487,40.5127,30.769,
26.4104,-11.0256,38.718,-62.3076,-39.2307,-75.6411,32.5642,9.9998,-10.5129,-2.3079,2.3079,-77.1794,43.3333,27.4358,
33.0767,1.7949,37.6919,-66.4104,-24.2307,-66.4104,38.7178,14.6152,-25.3848,-2.8208,-1.7949,-80.2566,47.4355,30.5127,
36.4104,5.6409,36.9231,-70.7693,-22.0513,-54.8718,33.3333,16.4104,-40.3848,-5.6409,-14.8718,-94.3589,45.6409,32.3079,
30.5129,5.3845,44.8718,-65.3848,-26.9231,-52.0513,32.5642,16.1536,-45.8975,-5.3845,-10.5129,-92.0513,42.3074,31.5383,
30.769,6.1538,35.3848,-73.8462,-28.718,-67.0513,23.0771,10.2563,-43.5898,-6.1538,-12.8203,-90.7693,35.8975,25.6411,
28.4614,1.2822,30,-74.1025,-26.4102,-64.8718,22.8208,10.5127,-45.3845,-1.2822,-16.1538,-83.3333,40.7695,31.0259,
32.0513,3.8462,33.5898,-73.0769,-30,-62.3076,23.8462,13.0771,-40.7693,-3.8462,-15.1279,-74.1025,40.7695,32.0513,
30.5127,1.7949,32.0513,-81.7949,-28.4617,-71.0256,20.2563,11.0254,-32.5642,-1.7949,-11.5386,-69.4873,43.3335,29.4873,
20.5127,-3.5898,28.2051,-85.6411,-23.0769,-70.2563,21.5386,11.7949,-26.1538,3.5898,-7.1797,-69.7437,48.7178,30.2563,
26.6667,4.6155,31.282,-78.9744,-19.4871,-62.5642,24.6155,11.282,-21.0256,-4.6155,-7.1794,-72.8206,41.0256,26.6667,
21.0254,5.6411,35.8975,-69.231,-15.8975,-55.8975,25.6411,4.6152,-15.8975,-9.7437,-4.6152,-64.6155,35.3848,24.6152,
20.2563,7.436,33.0767,-68.9744,-15.1284,-60.7693,21.2822,5.8975,-27.436,-7.436,-5.8975,-68.9744,36.6665,22.8203,
25.6414,7.1794,26.6667,-74.8716,-16.9231,-63.0767,15.8977,7.6926,-33.3333,-8.718,-7.1794,-82.564,36.9231,18.9744,
19.7437,5.8975,28.4619,-71.0254,-17.1792,-55.6409,16.667,6.4106,-18.3333,-8.4614,-5.8975,-76.1536,38.7183,22.3081,
25.3848,13.5898,34.1025,-66.9231,-16.1538,-51.5383,20.7695,8.4614,-14.6152,-8.4614,-11.5386,-65.3845,36.1538,22.8208,
18.718,7.949,33.0769,-65.8972,-16.1536,-44.8716,27.4358,6.9231,-21.7947,-6.9231,-8.4617,-56.6665,34.1028,24.8718,
12.3076,3.0767,24.6152,-67.1794,-17.436,-42.5642,24.1025,2.0513,-15.8975,-5.6411,-2.0513,-50.7693,40,26.6665,
20.7693,6.9231,24.3586,-68.4617,-16.6667,-45.8975,19.7434,2.8206,-12.5642,-5.3845,-2.8206,-53.0769,43.3333,23.8459,
20.5127,3.5898,29.2305,-65.6411,-12.3076,-49.7437,23.0767,6.1538,-14.3589,-5.1284,-3.5898,-60,35.8975,25.1279,
25.3848,4.3589,30,-64.8716,-13.0767,-59.7434,23.8462,5.3848,-19.7437,-7.4355,-4.3589,-64.8716,30,23.8462,
23.5898,3.5898,32.8208,-57.9487,-12.3076,-47.1794,26.1538,2.564,-27.1792,-9.2305,-2.564,-64.1025,36.4102,23.0771,
22.8206,9.4871,38.2053,-44.8718,-3.8459,-32.1794,27.4358,3.8459,-42.1792,-13.0769,-8.9744,-66.4102,36.1541,22.8206,
22.051,9.7434,35.3845,-42.5642,-1.0256,-17.1794,24.1023,1.0256,-57.1792,-22.0515,-23.9744,-66.6667,26.6667,14.8718,
16.6665,5.3848,34.6152,-44.3589,-0.76904,-20.769,27.9487,0.76904,-46.9231,-18.2051,-19.7437,-59.7437,30,15.6411,
29.4871,11.5383,32.051,-51.0259,-1.282,-25.8977,27.4358,1.282,-35.6411,-13.5901,-8.4617,-70.5129,33.5896,19.7434,
27.6924,6.1538,30.2563,-56.9231,-0.5127,-25.6411,25.6411,0.51269,-33.8462,-12.8203,-5.1279,-75.3845,35.3848,20.5127,
23.3333,7.4358,28.9744,-60.7693,-4.8718,-28.4617,25.3845,3.3333,-28.9746,-10.0002,-3.3333,-65.3848,35.6409,22.3074,
24.8718,8.9744,13.9744,-71.5383,-17.6921,-38.2051,12.0515,2.8206,-24.8718,-13.0769,-2.8206,-63.8459,28.9744,21.7952,
15.3848,-2.564,5.6411,-71.2822,-15.3848,-31.7949,10.2563,4.6152,-13.8462,-8.2051,2.564,-52.3079,33.333,27.1792,
18.9744,-1.0256,7.6921,-72.8206,-10.2566,-28.718,12.8206,5.1282,-15.3845,-7.6921,1.0256,-48.2051,36.4104,24.6155,
17.6921,0.76929,6.4104,-72.5642,-12.0515,-28.4617,12.0515,2.8206,-18.718,-11.0256,-0.76929,-54.6155,33.5896,21.282,
12.051,1.282,5.3845,-67.949,-11.5388,-25.3845,8.9744,4.8718,-13.5901,-10.0002,-1.282,-51.0259,28.9744,23.3333,
18.2051,3.8462,3.8462,-71.5383,-13.0767,-33.0769,3.8462,5.3848,-14.6152,-7.9487,-3.8462,-51.5383,27.436,23.3335,
13.3335,0,5.1284,-72.3076,-14.3589,-41.0254,8.7183,0,-20,-9.2305,1.0259,-63.0767,31.7949,21.5386,
17.4355,8.7178,9.2305,-67.6924,-12.8208,-34.8721,13.333,-2.0513,-21.5386,-17.436,2.0513,-68.2053,32.8203,15.8975,
22.0513,15.8975,16.9233,-57.4358,-5.6411,-19.8721,18.9746,1.5386,-16.4102,-15.8975,-1.5386,-53.2053,30.2563,18.9746,
14.8716,14.8716,16.9229,-51.7949,-4.1025,-21.0259,24.1025,4.1025,-14.8721,-9.7437,-4.1025,-43.5898,30.769,24.6152,
15.1282,11.0256,5.8977,-64.8718,-11.0256,-36.0259,14.6155,1.282,-17.6921,-17.6921,-1.282,-58.5898,28.9744,17.6921,
10.5132,2.8208,0.25635,-73.5896,-7.9487,-32.0513,9.4873,-0.25635,-5.8975,-12.0513,8.9746,-60.2563,35.6411,20.7695,
13.5896,5.3845,-1.7952,-75.1284,-4.8718,-22.8206,9.9998,0.76929,-0.76929,-1.7952,3.8459,-47.949,35.6409,23.8459,
17.1794,7.4358,6.4104,-67.9485,-7.9485,-10.5129,11.0256,1.282,-4.3586,-4.8718,-1.282,-47.4358,26.9231,20.7693,
12.0513,2.8208,12.0513,-57.1794,-7.4355,-3.333,10.5132,-1.7949,-3.333,-10,1.7949,-54.6152,22.8208,21.2822,
20.2563,11.5386,10,-55.1282,-2.3076,-7.4355,13.5898,0.25635,-3.333,-7.9487,-0.25635,-52.564,25.3848,23.8462,
12.3079,8.718,11.7952,-55.8975,-1.0256,-2.5642,18.9744,1.0256,-14.3591,-12.3074,-4.1023,-47.1794,29.2307,18.4617,
11.5386,3.8462,10.5132,-56.1536,-3.8462,5.3848,19.231,-5.3843,-26.9229,-24.8716,-11.5381,-56.6665,26.4106,10,
23.5898,7.1797,7.1797,-58.4614,-3.5898,3.5898,16.9229,-8.7178,-30.2563,-24.6152,-15.3848,-67.1794,21.5386,11.2822,
15.6409,10.5129,11.0256,-58.718,-1.282,1.282,21.282,-1.7952,-35.6411,-22.3079,-11.0256,-68.4617,21.282,13.5896,
15.3845,15.3845,13.3333,-54.3589,-4.6155,1.0256,23.0769,-1.0256,-46.1538,-29.2307,-15.3845,-66.1538,20.0002,7.6926,
14.8716,8.7178,11.2822,-48.2051,-7.6924,7.6924,21.0259,-7.6924,-34.3589,-23.5898,-18.9741,-51.1538,23.5898,11.7949,
17.1797,9.4873,10,-54.6152,-8.9741,4.3589,14.1025,-4.3589,-21.2817,-14.6152,-11.5381,-37.1794,22.3076,20.7695,
21.7949,11.0259,6.9229,-63.8462,-11.0259,-9.4873,12.564,0.76904,-20.769,-14.1025,-0.76904,-44.3589,18.2051,22.8203,
16.4104,7.1794,3.0769,-56.9231,-7.6921,-1.0256,17.4358,-0.51294,-17.9485,-15.3845,0.51294,-45.1282,20.5129,19.4871,
20.2566,12.5642,3.3333,-56.1538,-4.8718,13.9744,14.6155,-3.3333,-22.3079,-20.2566,-9.4871,-42.8206,20.7693,11.5383,
17.1794,10.5129,4.8718,-60.2563,-4.8718,19.7434,18.2053,-5.3845,-16.6667,-20.2566,-12.5642,-38.2048,26.4104,12.0515,
21.2822,14.6157,0.25635,-58.7178,-2.8203,23.3335,23.3335,-0.25635,-7.4355,-16.1538,-3.333,-36.1538,28.9746,16.667,
23.0771,15.3848,-7.6919,-63.0767,-2.0513,20.5132,15.3848,-3.0767,-16.9229,-21.0254,2.0513,-44.6152,21.5386,9.7437,
9.2305,7.6924,-6.1538,-62.0515,0.5127,18.9741,16.9229,-8.7183,-15.3848,-21.0259,-0.5127,-40,23.0767,11.7949,
18.9746,17.436,-2.564,-56.9231,2.564,24.6157,26.667,-3.0767,-4.1025,-14.8716,-2.564,-29.7437,29.7437,19.4873,
23.3333,16.6667,-4.8718,-63.8462,-0.76929,28.4617,24.8718,-0.76929,-2.8206,-15.6414,0.76929,-31.0256,25.8972,19.2307,
18.2053,11.5388,-1.7947,-71.0254,-1.282,22.3079,18.718,-3.3333,-6.9231,-13.5896,1.282,-32.5637,21.7952,18.2053,
21.7947,16.1536,1.282,-71.5386,-1.282,22.8206,18.2048,-4.8718,-7.4358,-12.0515,-1.7952,-25.8977,24.8718,17.1794,
14.8721,10.2568,-3.5894,-75.3845,-3.5894,23.5898,18.9746,-5.6406,-2.0513,-10.769,2.0513,-21.0254,30.7695,17.436,
17.9487,-0.5127,-7.6924,-77.9487,-3.5898,14.3589,16.4102,-3.5898,0.5127,-10.769,3.0767,-26.1538,28.7178,20,
19.9998,-14.8718,-0.51294,-65.6411,0.51294,21.5383,21.5383,-2.0515,-1.0256,-10.7693,0.51294,-29.7434,27.6921,22.5642,
17.436,-22.0513,2.564,-67.1794,0.5127,22.564,23.5898,-4.6152,-12.3076,-13.3335,-0.5127,-42.5642,29.2305,15.8975,
24.3589,-13.0771,0.25635,-76.6667,-0.25635,11.0254,20.2563,-2.8208,-13.5898,-11.5386,0.25635,-49.4873,28.4614,13.5898,
14.1025,-15.1284,0.76904,-68.4614,3.3335,20.769,23.3335,-0.76904,-4.3589,-10,-2.8203,-40.2563,25.8975,17.1797,
17.1797,-10,2.8203,-60.7693,6.4102,33.0771,27.436,-2.8203,-5.8975,-15.1284,-7.436,-38.718,23.8462,14.1025,
19.7439,-9.4871,2.8206,-67.4358,3.8464,24.8718,25.3845,-6.4099,-11.5383,-16.1536,-2.8206,-41.282,24.8718,14.1028,
12.564,-15.1284,-1.2822,-73.5898,1.2822,22.8203,21.7949,-2.8203,-5.8975,-12.0513,3.8462,-31.0256,26.4102,21.2822,
19.231,-12.0513,-8.4614,-77.6924,0.25635,24.8716,17.1797,-0.25635,-4.8716,-14.1025,4.3589,-28.4614,23.3335,18.7178,
15.1282,-17.6921,-8.4617,-78.718,0.76929,23.3333,15.6409,-7.4358,-0.76929,-13.0769,5.8972,-31.0256,24.8718,17.1794,
11.7952,-16.4099,-8.7175,-79.4871,-3.0769,21.0256,11.2825,-11.7947,6.1541,-13.8459,3.0769,-35.8972,21.0256,12.8206,
14.3591,-11.282,-9.2307,-72.8206,-3.5896,21.5383,8.2053,-7.6921,4.6155,-16.9231,3.5896,-36.9231,16.9231,7.1794,
11.0259,-9.4873,-7.436,-63.8462,-0.76904,28.4614,11.0259,-6.4102,0.76904,-16.1538,4.8716,-27.436,19.7437,7.436,
19.7434,-1.7947,-4.8718,-62.3076,4.8718,36.6667,15.1282,-5.8972,-0.76929,-15.6409,0.76929,-25.3845,23.3333,10.5129,
17.6924,-3.8462,-2.3076,-61.2822,8.9741,43.333,19.2305,-2.8208,0.25635,-13.0771,-0.25635,-33.0771,23.333,17.1792,
17.1794,1.282,-1.7952,-60.7693,3.8459,42.8206,17.6921,-1.282,-6.4104,-13.5901,-3.8464,-39.231,16.6667,17.1794,
19.7439,5.8977,-1.282,-60.2563,1.282,40.2566,15.1282,-5.3845,-8.4612,-15.6409,-5.3845,-36.1538,14.6155,7.949,
11.5386,-1.7949,-1.2822,-58.2053,1.2817,34.6152,16.1538,-7.9487,0.25635,-14.1025,-0.25635,-29.4873,19.7437,5.8975,
14.8716,0,-4.6157,-61.5386,2.0513,34.8716,17.4355,-6.1538,-2.0513,-18.9746,0,-23.5898,20.5127,9.7437,
8.9746,-2.3076,-7.9487,-62.8203,3.8462,49.8716,17.6924,-6.4102,0.25635,-19.7437,-0.25635,-12.564,18.7183,13.5898,
7.436,-0.25635,-9.4868,-60.769,0.25635,53.5898,10,-5.3843,1.2822,-13.5894,-1.7949,-7.9487,13.0771,12.5645,
18.7178,6.4102,-3.3335,-56.6667,0.76904,54.1025,11.0259,-1.7949,-3.8462,-10,-0.76904,-11.5386,15.1284,16.1538,
9.4875,0.76929,-2.3074,-56.1538,1.7952,56.6667,13.5901,-3.3333,-3.3333,-13.5896,-0.76929,-17.1794,15.1282,15.6414,
8.9746,0.25635,-10.5127,-63.3333,0.76953,47.436,9.4873,-3.8462,-0.25635,-19.2305,-2.8203,-19.7437,10.5127,7.9487,
5.8972,-3.8464,-12.0515,-62.8208,0.76929,44.8718,9.9998,-6.4104,3.8459,-19.2307,-0.76929,-16.6667,11.5383,6.4099,
8.4617,6.9231,-6.9231,-55.1282,1.282,58.2048,14.6155,-5.3845,-1.282,-16.6667,-2.8206,-21.282,9.9998,7.9485,
17.436,16.4102,-5.1279,-57.4358,3.5898,50.2563,14.8721,-3.5898,-15.3843,-17.436,-8.2051,-33.333,6.667,5.6411,
6.1541,5.1282,-5.6409,-59.4871,8.718,37.949,14.3591,-7.6921,-16.4104,-18.4617,-5.1282,-32.8206,13.3333,5.1282,
8.4617,8.4617,-9.4871,-59.7437,9.4871,40.2566,11.5383,-10.0002,-4.3591,-16.6667,-2.8206,-31.5383,18.2048,2.8206,
7.9485,5.3845,-14.6155,-60.2563,5.3845,37.1794,6.9231,-11.0256,-0.76929,-15.1282,-6.9231,-34.6155,10.5129,0.76929,
5.3848,-1.7949,-10,-60.7693,11.0259,41.2822,6.9233,-10.5127,2.3076,-12.0513,-4.8716,-24.8716,4.8721,1.7949,
3.0767,-0.5127,-11.2822,-68.2053,10.769,52.8203,3.5898,-13.8462,9.7437,-10.2563,-5.6411,-10.2563,6.6665,0.5127,
-5.1284,2.564,-13.3335,-58.9744,11.7949,51.7949,6.6665,-12.8203,9.231,-5.6411,-2.564,-7.6924,13.3335,7.1797,
1.5386,8.2051,-11.2822,-47.6924,17.436,42.0513,5.1284,-14.8716,-5.769,-15.8975,-1.5386,-22.6924,8.2051,5.1284,
1.5383,4.1023,-3.0769,-40.0002,25.1282,57.0513,6.1536,-18.4617,-10.7693,-23.0769,-1.0256,-18.4617,6.6667,1.0256,
-2.3079,7.4358,2.8206,-31.5383,33.5896,72.0513,17.1794,-13.0769,-1.282,-17.1794,-1.282,-7.4358,14.1028,1.282,
4.1023,16.9231,1.0256,-27.1794,31.7947,61.5383,12.3074,-11.282,-7.1794,-21.0256,-3.0769,-22.4358,8.718,-1.0256,
-4.6157,11.2817,0,-18.9746,29.7432,69.2305,7.6919,-15.8975,-6.667,-26.667,2.0513,-34.3594,7.1792,0,
-0.76929,16.6667,0.25659,-19.2307,29.9998,77.1794,12.5642,-18.2053,-4.3591,-20.2566,1.7947,-22.3079,11.5383,-0.25659,
7.1794,27.6921,1.5383,-23.5896,26.6667,66.6667,11.7947,-17.4358,-4.1023,-10.7693,-3.0769,-16.9231,10.2566,-1.5383,
-1.0256,34.3586,1.0256,-14.3591,23.5896,75.3845,6.1536,-13.8464,-1.0256,-10.7693,-2.0515,-10.7693,11.7947,2.5637,
-3.5898,34.8721,-3.0767,-4.6152,26.1538,90.3845,6.1538,-15.3848,0.5127,-14.8716,-0.5127,-5.6411,10.769,2.564,
-11.0256,22.8206,-3.8464,-6.4104,24.3586,105.3845,6.9231,-21.282,5.3845,-16.6667,1.282,-11.5383,5.8972,-1.282,
-0.51269,29.231,-0.51269,-6.6665,25.1284,119.4873,-2.0513,-13.8462,12.3076,-14.8716,3.5898,-15.8975,5.1284,0.5127,
4.3586,32.051,2.8206,-5.3845,29.4871,118.718,-2.8206,-13.0769,6.9231,-13.5901,-5.3845,-16.1541,3.3333,-3.8464,
-3.3333,27.4358,4.8718,-6.4104,29.9998,133.718,12.051,-17.1794,2.8206,-7.949,-6.9231,-13.5896,4.3591,-2.8206,
-0.25659,32.5642,-6.9231,-11.0256,22.3079,148.718,5.3845,-17.1794,1.7947,-10.0002,-1.282,-14.1028,6.9231,0.25659,
-3.3333,32.051,-3.8464,-4.8718,33.0769,162.3079,-2.8206,-14.1028,4.8718,-10.5129,1.7947,-1.7947,12.5642,5.3845,
0,32.3076,6.6665,-2.5645,48.0769,177.3079,-2.0513,-14.3594,0,-7.1797,-2.0513,-0.51318,6.1538,3.5894,
2.3076,31.5386,-0.25635,-4.8716,63.0769,192.3079,6.4102,-13.0767,-3.3335,-6.4102,-0.76904,-14.6152,7.436,0.25635,
-7.949,24.8718,-3.8464,-8.4617,71.5383,206.4099,13.0769,-13.5901,0.76929,-12.0515,0.76929,-17.6926,12.051,-0.76929,
2.3079,29.9998,11.1536,-11.0256,64.3591,221.4099,1.7947,-17.1794,-1.7947,-16.6667,-3.3333,-10.0002,1.7947,-2.3079,
-0.51294,26.6667,16.4104,-7.1794,73.3333,236.4099,-8.718,-14.3591,-1.5383,-6.1541,0.51294,-4.1028,4.6155,6.1541,
-13.3333,23.0769,1.4104,-12.3079,88.3333,251.4099,6.282,-11.282,-3.0769,-2.5642,2.5642,-8.2053,17.9485,7.1794,
-8.2053,28.2053,-13.5896,-13.8459,103.0769,266.4099,20.0002,-13.8459,-4.1028,-9.7434,6.1541,-7.1794,18.9744,4.1028,
-9.231,21.5386,1.4104,-8.7178,88.0769,281.4099,5.0002,-23.0771,-2.0513,-13.8462,0.5127,0.5127,3.9744,-0.5127,
0.76929,21.282,3.3333,-8.4612,97.6926,296.4099,-4.8718,-21.282,2.8206,-11.0256,-5.8972,6.4104,-4.8718,-0.76929,
-12.564,10,-11.6667,-18.2051,112.6926,311.4099,10.1282,-24.8716,2.3076,-18.7178,-2.3076,2.3076,2.3076,-5.3843,
-23.0769,11.7952,-17.9485,-14.3586,127.6926,326.4099,4.1028,-27.1794,-1.5383,-19.4871,2.0515,1.5383,7.1794,-7.6921,
-15.3848,19.4873,-10.2563,-13.3335,125.6411,341.4099,2.564,-25.1284,-0.5127,-13.8462,0.5127,4.6152,2.0513,-5.1284,
-16.1541,11.5383,-13.0769,-17.1794,136.1536,356.4099,17.564,-27.4358,7.4358,-15.6414,-1.282,9.4871,1.282,-5.3845,
-3.3333,19.7434,-3.8459,-13.0769,139.2307,371.4099,3.3333,-20.7693,3.3333,-20.7693,-4.3591,5.8977,6.9231,-5.8972,
-4.1025,22.564,8.2051,-10.2568,132.8203,386.4099,-11.6667,-13.8462,-2.0513,-14.8721,0,4.6152,13.333,0,
-18.2051,14.6152,-6.7949,-20.7695,141.2817,401.4099,3.3333,-22.8208,-7.436,-18.2051,1.7949,4.8716,6.9229,-1.7949,
-11.0254,24.8721,-21.7949,-13.0767,156.2817,416.4099,18.3333,-20.769,-1.7949,-21.7949,1.7949,14.6157,7.9487,-2.8203,
-14.3589,26.1538,-28.2051,-2.564,169.7437,431.4099,27.1797,-14.3589,-1.5386,-17.9487,-2.564,12.3076,13.3335,1.5386,
0,28.7178,-13.2051,-8.2051,154.7437,446.4099,13.333,-13.8462,-15.8975,-17.9487,-6.667,-2.6924,10.2563,0,
4.6152,25.6411,1.7949,-10.2563,141.5386,461.4099,14.8721,-20,-17.9487,-23.0767,-4.6152,-8.2051,5.6411,-8.2051,
-4.1023,27.6921,9.2307,-3.0769,156.5386,476.4099,18.9744,-13.3333,-4.6155,-18.4617,0.51294,-0.51294,7.1794,-3.5896,
-0.25659,35.1282,-0.25659,-2.8206,152.051,491.4099,15.6409,-6.4104,-5.3845,-14.1028,0.25659,-0.25659,5.8972,1.7947,
-13.3333,24.6155,-8.2048,-1.0256,146.6667,506.4099,21.0256,-14.3591,-6.1536,-19.4871,1.0256,11.7952,7.6921,-2.5642,
-19.7434,21.282,-20.2561,-5.3845,159.7439,521.4099,36.0256,-21.7947,0.76929,-24.8718,-0.76929,18.718,8.4617,-7.9485,
-19.2307,19.2307,-27.9485,-16.6667,174.1028,536.4099,42.3079,-19.2307,0.76929,-20.2566,-0.76929,8.4617,6.9231,-6.9231,
-18.9746,22.0513,-14.8721,-17.9487,170.769,551.4099,27.3079,-12.8208,-2.5645,-16.4106,3.0767,7.1792,2.0513,-2.0513,
-8.7178,32.8203,-4.6152,-15.3848,165.6411,566.4099,12.3079,-8.7178,-1.5386,-14.8716,5.1284,12.8203,4.6152,-3.0767,
-15.1279,22.3076,-11.5386,-23.3335,166.4102,581.4099,15.6411,-12.0513,-2.3076,-10.5127,2.3076,12.564,7.9487,-4.3589,
-13.8464,17.9485,-10.7693,-31.282,169.7434,596.4099,14.8718,-14.8718,-1.0256,-9.7439,1.0256,18.9744,2.5642,-3.5896,
-11.0254,19.7437,-10,-33.0771,168.4614,611.4099,0.76904,-17.1797,4.8716,-15.6411,3.3335,23.8462,-0.76904,-7.9487,
-26.0254,14.3589,-25,-36.9229,169.7437,626.4099,0,-23.0767,3.5898,-17.436,0,10.2563,0,-11.2817,
-26.6667,18.9744,-40,-43.0769,184.7437,641.4099,15,-21.5383,3.0769,-12.3079,-3.0769,10.2566,5.1282,-8.2053,
-28.4614,11.5386,-27.9487,-43.3335,196.6665,656.4099,13.5898,-24.3589,6.4102,-15.6411,-1.7949,25.2566,1.7949,-11.0254,
-23.8462,13.5898,-12.9487,-39.231,185.8975,659.7437,5.3848,-24.3589,6.9233,-18.7178,5.8975,34.6152,-5.3848,-12.0513,
-22.3079,13.0769,-23.8459,-46.9231,196.1541,644.7437,12.0515,-24.3591,3.3333,-19.2307,5.3845,19.6152,-3.3333,-12.051,
-30.2563,7.1792,-38.8459,-50.2563,210.769,629.7437,13.8462,-28.2051,3.0767,-16.9233,-2.0513,25.1279,2.0513,-15.8975,
-22.3079,19.7434,-27.9485,-41.7947,225.769,614.7437,2.8206,-24.3591,2.3079,-13.0769,1.282,35.1282,-1.282,-16.6667,
-28.9746,21.7949,-22.3076,-38.7178,240.769,599.7437,4.3589,-14.6152,12.0513,-7.9487,11.0254,31.5386,-4.3589,-5.8975,
-25.8975,18.2051,-30.5127,-53.7178,255.769,592.564,17.6924,-13.0771,17.1792,-10.5127,3.8462,26.9229,-3.8462,-3.8462,
-13.0769,25.3845,-15.5127,-59.7437,240.769,577.564,15.1282,-19.7434,6.9231,-11.5383,-0.76929,28.4617,0.76929,-8.4617,
-28.0769,27.6921,-9.2307,-48.2053,244.1023,562.564,2.5642,-25.6409,-2.5642,-13.3333,5.6409,29.7434,3.0769,-9.7434,
-27.6924,35.3848,-24.2307,-44.6152,259.1023,547.564,9.7437,-19.4868,-2.0513,-16.4102,5.6411,27.6924,2.0513,-7.1792,
-17.436,29.2305,-28.7183,-52.8208,274.1023,532.564,16.4102,-22.0513,-2.0513,-14.8721,2.0513,24.6152,3.0767,-6.667,
-32.0513,25.3848,-20.2563,-57.6924,259.1023,517.564,3.8462,-32.0513,-3.8462,-15.6411,3.8462,25.8975,3.8462,-13.0767,
-40.769,28.4614,-35.2563,-54.1025,268.9746,502.564,5.3848,-37.1792,0.25635,-20.2563,1.7949,29.4873,-0.25635,-20.2563,
-32.8206,27.1794,-42.5642,-46.1536,283.9746,487.564,20.3848,-28.2048,9.2307,-12.8206,0.51294,31.282,-0.51294,-12.3079,
-17.8206,34.1028,-27.5642,-46.9231,268.9746,472.564,28.9744,-19.2307,7.9485,-11.0256,-1.282,25.3845,1.282,-7.949,
-16.4104,29.7434,-12.5642,-52.3076,262.0515,457.564,32.8206,-22.5642,5.6409,-15.8972,-3.0769,24.6155,3.0769,-10.7693,
-26.4104,23.3333,-12.0515,-56.6667,277.0515,442.564,17.8206,-22.3079,11.5383,-7.949,0.76929,29.4871,8.9744,-7.949,
-34.3589,19.4873,-19.4873,-63.5898,292.0515,427.564,2.8206,-22.564,20,-6.1538,6.1538,30.2563,6.6665,-9.231,
-46.9231,4.8718,-34.4873,-77.1794,277.0515,412.564,0.76929,-33.0769,23.8464,-16.6667,9.4875,28.4617,-0.76929,-19.2307,
-36.1538,7.436,-49.4873,-92.1794,262.3076,397.564,15.7693,-34.6152,14.6152,-19.7437,6.9229,18.7178,-6.9229,-23.8462,
-31.7949,20,-46.6667,-84.1028,277.3076,382.564,0.76929,-22.0513,21.0254,-4.7437,11.7949,27.1792,4.1025,-9.231,
-46.7949,15.6411,-47.9487,-71.5383,292.3076,367.564,-14.2307,-27.4355,17.6924,-8.4614,11.0259,35.1284,8.4614,-12.0513,
-35.6409,15.1282,-54.1023,-78.2051,287.949,352.564,0.76929,-32.5642,2.6924,-20.7693,3.8464,30.0002,-1.7947,-19.2307,
-24.1023,17.4363,-39.1023,-74.3589,272.949,337.564,15.7693,-23.5896,13.3333,-10.7693,6.6667,36.9231,-6.6667,-10.2561,
-21.5386,30.7695,-24.1023,-59.3589,287.949,331.2822,0.76929,-15.8975,28.3333,-3.5898,17.9487,50.7695,3.5898,-4.1025,
-36.5386,22.0513,-29.231,-56.9231,302.949,316.2822,-4.1025,-28.2051,13.3333,-18.4614,9.7437,40,4.1025,-16.4102,
-35.6409,16.6667,-24.3591,-64.8718,294.1028,301.2822,10.8975,-29.4871,-0.76929,-11.5383,2.8206,37.6921,0.76929,-16.1541,
-22.051,26.1541,-26.6667,-67.6921,295.3845,287.6921,25.8975,-24.1023,5.6409,-5.6409,1.5383,44.6155,-1.5383,-13.8459,
-37.051,16.1538,-41.6667,-69.4871,310.3845,276.1538,10.8975,-28.4614,7.9487,-15.6411,1.7949,42.8203,-1.7949,-19.231,
-52.051,14.6155,-56.6667,-70.5127,301.7947,261.1538,24.3591,-28.9744,0.25659,-17.1794,0.25659,33.5896,-0.25659,-20.7693,
-37.051,19.2307,-43.8464,-66.4104,286.7947,246.1538,39.3591,-30.5129,0.76929,-14.1028,0.76929,36.1536,-0.76929,-18.2053,
-30.2563,20,-28.8464,-57.9487,287.1792,255.3848,24.3591,-30.769,14.3589,-11.7949,4.6152,45.6411,-4.6152,-14.8721,
-23.8462,23.8462,-13.8464,-62.8206,300.769,240.3848,16.1538,-27.436,18.2051,-7.9487,4.8716,42.3076,-4.8716,-13.0771,
-38.8462,8.9744,-28.8464,-77.8206,315.769,225.3848,31.1538,-35.6409,5.3845,-10.5129,1.282,34.6155,-1.282,-19.7434,
-43.3333,12.5642,-43.8464,-76.1538,317.6921,210.3848,40.7693,-35.1282,0.25659,-14.6155,0.76929,34.1028,-0.25659,-22.8206,
-28.3333,27.5642,-28.8464,-61.1538,302.6921,207.436,25.7693,-21.2817,15.1284,-3.8462,12.0513,44.8721,3.8462,-9.4873,
-38.7183,15.6411,-20.2563,-67.949,287.6921,192.436,19.7437,-31.0259,8.4614,-6.9233,5.8975,40.769,-5.8975,-14.1025,
-37.436,14.8716,-35.2563,-76.9231,302.6921,177.436,34.7437,-32.3076,4.1025,-11.2822,6.1538,36.4102,-4.1025,-20,
-38.9746,7.6924,-48.2051,-81.0256,296.4102,162.436,19.7437,-34.8716,4.6152,-16.4102,7.1797,23.5898,-4.6152,-24.1025,
-33.8462,18.4614,-33.2051,-72.8206,285.1284,147.436,4.7437,-27.1797,13.8462,-7.1797,12.3076,28.2051,-0.5127,-14.8716,
-33.5898,19.231,-35.1284,-73.0769,293.5898,132.436,19.7437,-30.5127,7.436,-8.9746,4.3589,34.1025,-4.3589,-17.1797,
-47.4358,6.9231,-50.1284,-70,298.718,117.436,34.7437,-36.1541,2.3079,-14.1023,1.282,36.1541,-1.282,-20.7693,
-52.0513,8.4614,-61.2822,-73.0771,283.718,102.436,21.7949,-39.231,4.8716,-18.7183,0.25635,34.1025,-0.25635,-27.436,
-49.4868,10,-51.0254,-67.9485,278.7183,87.436,36.7949,-36.6665,14.6157,-10.5127,-0.25635,43.8462,0.25635,-25.8975,
-34.4868,20.2563,-36.0254,-53.0769,292.564,83.3335,51.7949,-26.9229,13.5898,-0.25635,-1.2817,47.9487,0.25635,-16.1538,
-31.7949,26.6665,-21.0254,-55.3848,305.1279,70.769,36.7949,-24.1025,1.5381,-7.1797,0,35.3843,0,-15.8975,
-46.7949,11.6665,-36.0254,-63.5896,315.3845,56.4104,29.7439,-36.9231,6.1541,-16.9231,2.5642,32.3079,-2.5642,-24.6155,
-45.1282,10.2566,-37.949,-58.9744,301.0256,41.5383,27.1794,-37.949,15.8972,-12.8206,5.6409,38.9744,-5.6409,-24.1028,
-44.3589,9.4873,-26.4102,-59.2307,286.0256,26.5383,36.1538,-37.6924,10,-13.0767,7.9487,37.1797,-7.9487,-23.8462,
-49.2305,13.3335,-41.4102,-55.3845,301.0256,11.5383,51.1538,-31.7949,14.8721,-12.8203,16.9233,38.4614,0,-22.0513,
-34.2305,19.4875,-42.051,-53.3333,316.0256,-3.4617,39.4875,-25.6409,22.5642,-3.0769,13.8464,40.0002,3.0769,-18.9744,
-42.5637,12.8206,-37.4358,-57.4358,320.5129,-18.4617,41.0256,-28.7175,26.1541,1.0256,3.5901,46.6667,-1.0256,-14.8718,
-42.5645,20,-43.0771,-53.3335,308.7178,-33.4617,56.0256,-26.667,28.2051,-2.0513,8.7178,54.3589,2.0513,-10.7695,
-42.0515,16.4104,-43.5896,-49.7434,318.9744,-48.4617,49.2307,-26.6667,25.6409,-3.0769,15.3845,47.6921,3.0769,-11.282,
-39.231,13.0767,-32.0513,-59.231,318.7178,-63.4617,53.5894,-26.4106,31.5381,0.25635,18.2051,41.7949,-0.25635,-10.5132,
-24.231,22.564,-17.0513,-61.5383,303.7178,-78.4617,44.1025,-20.5127,39.4873,-2.0513,22.564,44.6152,2.0513,-9.231,
-37.1794,15.6409,-3.3333,-46.5383,296.6667,-93.4617,29.1025,-22.3079,29.4871,-7.4358,19.7434,40.2566,3.3333,-13.5896,
-40.769,25.8975,-18.3333,-35.6411,311.6667,-108.4617,38.2051,-21.7949,20.2563,-4.8716,16.1538,33.0771,4.8716,-11.5386,
-25.769,40.8975,-33.3333,-34.6155,326.6667,-123.4617,53.2051,-19.7439,23.3333,-1.282,15.1282,33.5896,1.282,-4.3591,
-12.051,50.0002,-18.3333,-20.7693,329.4871,-138.4617,68.2051,-15.1282,17.6921,0.25659,14.1028,31.5383,-0.76929,-0.25659,
-12.3079,57.4358,-4.1028,-14.8718,321.5383,-123.4617,53.2051,-14.3591,13.3333,-1.0256,16.4099,26.1536,1.0256,-9.2312,
-21.0254,56.4102,-14.3589,-10.2563,316.9233,-108.4617,67.1797,-15.8975,27.1797,-2.564,19.4873,33.8462,2.564,-14.8716,
-12.3074,59.4871,0.64111,-0.51294,301.9233,-93.4617,52.1797,-18.9744,16.4104,-13.3333,4.4873,29.7439,-9.2307,-16.4099,
-14.3591,56.9231,14.3586,4.6155,299.4871,-81.5386,37.1797,-24.6155,7.6921,-15.3845,-4.6155,33.8459,-15.3845,-15.8977,
-29.2307,54.3591,-0.64136,3.0769,314.3591,-82.5642,52.1797,-21.5383,22.6921,-3.0769,10.3845,48.8459,-7.1794,-9.2307,
-23.3333,63.3333,-15.6414,-3.3333,308.9744,-67.9487,67.1797,-14.1028,26.9231,1.282,11.5383,43.3333,-1.282,-9.4871,
-15.8972,55.8977,-16.9231,-7.6921,293.9744,-72.8203,52.1797,-13.8459,24.6155,-1.0256,8.718,31.7952,1.0256,-8.718,
-9.2312,51.7947,-1.9231,-11.7952,282.5637,-87.8203,37.1797,-12.8206,29.7434,1.0256,13.8459,39.9998,-2.0515,-2.5642,
-19.2305,46.4102,-7.9487,-15.1279,293.0771,-102.8203,52.1797,-19.2305,30,1.7949,14.1025,38.7183,-1.7949,-7.9487,
-34.2305,33.3335,-22.9487,-26.6665,282.564,-117.8203,67.1797,-28.7178,26.667,0.51269,12.8208,23.7183,-0.5127,-15.8975,
-26.9233,32.0513,-37.9487,-40.769,267.564,-132.8203,52.1797,-18.7178,17.1797,3.8462,12.564,15.6411,-3.8462,-11.5386,
-17.1794,34.1028,-22.9487,-30.5129,257.6921,-144.8718,37.1797,-8.4617,21.7947,11.5383,13.0769,30.6411,-2.8206,-0.25659,
-26.9231,28.9744,-7.9487,-24.3591,242.6921,-142.8206,22.1797,-23.4617,28.9744,-0.76929,2.8206,42.3079,-12.5642,-12.5642,
-23.8462,32.0513,-22.9487,-21.2822,245.3843,-151.0256,37.1797,-25.8975,40.2563,1.7949,13.0767,44.3589,-1.7949,-10.5127,
-38.8462,17.0513,-37.9487,-36.2822,252.8203,-166.0256,52.1797,-24.6152,25.2563,0,12.8208,31.2822,0,-12.3076,
-30.7693,22.051,-29.7439,-38.4617,243.5896,-181.0256,37.1797,-22.0515,22.5637,3.0769,11.282,35.3845,-3.0769,-11.7952,
-29.9998,21.7952,-23.3333,-36.1536,228.5896,-191.5383,22.1797,-21.7947,28.4617,5.3845,8.9744,43.8464,-5.3845,-10.5129,
-32.3076,17.436,-38.3333,-42.0513,224.1025,-203.5896,20.5127,-19.4873,28.2051,2.564,11.7949,43.0771,-2.564,-11.2822,
-24.6157,16.4102,-38.9746,-47.6924,224.6152,-214.3591,22.564,-20.5127,30.769,3.5898,15.8975,40,-3.5898,-8.2051,
-37.436,6.1538,-40,-49.7437,209.6152,-215.3848,37.564,-24.1025,27.6924,8.7178,10.769,37.9487,-7.1797,-6.1538,
-31.5383,13.0769,-36.6667,-47.436,197.1794,-216.6667,37.1794,-21.7947,14.1023,7.9485,4.8718,35.1282,-4.8718,-7.949,
-21.7952,18.2048,-26.9231,-40.7695,206.9231,-219.231,22.1794,-18.718,15.6409,8.9744,12.051,36.1536,0.76929,-2.8206,
-34.8718,8.2053,-41.9231,-49.7437,212.3079,-228.718,14.8718,-24.6155,23.5896,6.6667,13.8459,29.2307,-6.6667,-8.718,
-33.0767,7.436,-50,-59.2307,197.6924,-234.1025,29.8718,-22.8203,29.4873,10,13.0771,29.4873,-7.436,-11.0254,
-35.1279,3.3335,-35,-57.6921,182.6924,-236.6665,18.7178,-22.3076,32.0513,12.564,15.1284,36.6665,-3.3335,-7.9487,
-29.7434,4.6155,-45.1282,-54.8718,189.2307,-240.5127,17.4358,-22.5642,26.6667,9.7434,15.8972,36.4104,-4.6155,-8.718,
-26.9233,3.8462,-50.0002,-54.1028,193.0767,-237.1797,32.4358,-18.7183,23.8462,12.0513,17.6919,37.6919,-3.8462,-4.3594,
-30.2563,0,-35.0002,-53.8464,183.5894,-235.8977,41.5381,-15.8975,32.3076,13.8462,20.5127,37.4355,0,-1.5386,
-21.2817,2.3076,-33.0767,-47.4358,194.1025,-236.6665,26.5381,-14.6152,37.1797,14.1025,22.3076,38.2051,3.3335,-2.3076,
-32.3076,-5.6411,-48.0767,-47.6924,198.4614,-240.5127,15.3848,-19.4873,24.6152,13.3335,20.5127,40,2.0513,-2.0513,
-32.8203,0,-40.5127,-54.8716,183.4614,-247.1794,30.3848,-17.436,20,14.8721,20.5127,32.8208,0,-1.5386,
-29.4871,-2.8206,-37.6921,-58.2051,178.718,-244.3589,15.6414,-18.2048,28.9744,11.5388,21.7952,28.9744,2.8206,-4.3586,
-34.1025,-12.0513,-52.6921,-58.2048,184.8721,-237.1792,3.8462,-19.7432,26.9233,8.9746,20.2568,36.667,6.9233,-3.8462,
-28.4619,-5.8975,-41.2822,-62.8208,174.1025,-241.2822,18.8462,-15.1284,22.3076,11.5381,17.1792,39.7432,1.7949,-1.7949,
-31.0259,-9.4873,-26.2822,-62.8206,163.333,-242.3079,33.8462,-14.1025,32.0513,16.1538,22.3076,41.7949,0.25635,-0.25635,
-28.4617,-12.5642,-41.2822,-63.3333,166.9231,-241.282,19.2307,-16.6667,25.3845,16.1541,21.282,38.718,2.3079,-2.3079,
-29.4873,-12.564,-56.2822,-66.4102,175.1284,-242.3076,4.2307,-17.6924,13.0771,13.0771,22.3076,32.0513,1.7949,-1.7949,
-37.1797,-14.6155,-50.5129,-65.3848,171.5383,-237.6924,19.2307,-17.6926,21.282,11.0256,24.3591,34.6155,-0.76929,0.76929,
-26.6667,-10.7693,-38.9744,-69.2307,160.0002,-240.5127,30.7693,-16.4104,20.5129,11.7952,16.4104,37.4358,-1.0256,1.0256,
-28.4614,-17.6924,-34.1028,-74.1028,155.1279,-247.436,22.3076,-17.6924,8.4614,16.1538,9.4873,31.0254,0.25635,-0.25635,
-23.8462,-12.5645,-43.8462,-69.4873,160.769,-240.2566,20.769,-14.1025,17.1792,18.2051,14.1025,28.9741,-2.3076,2.3076,
-19.2307,-7.4358,-45.3845,-68.4614,155.6409,-232.0513,17.1794,-10.0002,29.4871,12.5642,23.3333,32.5642,-2.3079,2.3079,
-34.2307,-14.8716,-35.3845,-69.7434,148.2051,-235.3845,16.4102,-11.7949,20,9.7437,22.0513,27.6924,2.564,-2.564,
-30.769,-10.769,-49.7437,-70.7693,153.3335,-239.4873,5.6411,-13.3335,9.231,8.7178,14.8716,22.0513,3.5898,-3.5898,
-22.3074,-4.8718,-61.282,-64.8716,155.6414,-225.8972,-4.8718,-10.5129,24.231,18.2053,21.282,37.0513,4.8718,7.4358,
-31.2822,-9.231,-52.8206,-69.7437,144.1025,-233.8462,8.2051,-14.8721,31.2822,18.4614,25.1279,41.0254,-2.0513,2.0513,
-30.5129,-10.5129,-50,-68.9744,151.5383,-246.4102,22.3079,-14.6155,31.0256,11.0256,35.6409,28.4617,2.8206,-2.8206,
-33.0769,-15.6411,-64.8718,-67.9487,150,-242.3076,7.3079,-14.6152,27.436,8.9741,37.1797,25.8975,6.4102,-1.7949,
-22.8206,-6.9231,-49.8718,-70.5127,135,-233.0769,-0.76929,-10.5125,25.8977,12.5642,28.4617,30.5129,2.8206,0.76929,
-30.769,-9.7437,-37.4358,-68.2051,121.5386,-231.7947,14.2307,-13.8462,27.1797,10.7695,20,30.2563,0,0,
-30,-7.9487,-48.9744,-61.282,136.5386,-230.5129,23.8462,-11.0259,19.7437,10.5127,20.2563,28.9741,-1.2822,1.2822,
-16.4102,0,-34.3589,-57.9485,151.5386,-221.5383,8.8462,-6.6665,16.4106,11.7949,25.6411,28.7183,-0.5127,0,
-23.3333,-2.8206,-20.7693,-54.1025,140.7693,-211.5383,-6.1538,-10.5129,30.5129,9.4871,27.4358,31.5388,6.4104,2.8206,
-19.7434,-0.25659,-35.7693,-54.1025,130.5129,-217.6924,-0.25659,-13.0769,21.7947,0.25659,15.6409,30.5129,0.25659,0.25659,
-19.4873,-1.5386,-49.2307,-49.7437,145.5129,-217.436,14.7434,-6.1538,9.231,6.6665,12.3076,38.4614,-3.0771,1.5386,
-34.1028,-8.9746,-41.7949,-57.1797,152.0513,-216.1541,22.3076,-8.9746,12.564,6.4102,15.1279,33.0767,-0.25635,0.25635,
-20.0002,-1.0256,-32.3079,-61.5386,137.0513,-214.3591,7.3076,-11.2825,18.4612,4.1023,22.051,19.9998,-1.0256,1.0256,
-16.4102,-4.6152,-25.6411,-56.4102,130.769,-214.3589,4.1025,-9.231,21.0259,6.6665,27.6924,21.0259,-2.564,2.564,
-22.8208,-7.436,-32.0515,-56.1541,135.1279,-221.2822,1.2817,-11.0259,24.3589,4.8716,20.769,24.8716,-0.25635,0.25635,
-19.4873,-3.5898,-30.2563,-51.7949,129.7437,-213.8462,-4.6152,-6.1538,29.7437,8.7178,21.5386,29.231,3.5898,4.1025,
-11.5388,-0.76929,-25.3848,-50.5129,126.4099,-205.8977,-8.4617,0.76929,22.8206,9.4871,27.4358,25.3845,-2.3079,6.4099,
-9.2307,-0.51294,-35.3845,-56.9231,129.7434,-214.8718,0.51294,-2.0515,12.8206,7.6921,24.1028,15.3845,-1.5383,4.6155,
-24.2307,-12.5642,-50.3845,-56.6667,128.4612,-217.1797,0.76929,-14.6155,11.0256,2.3074,12.051,14.1023,1.7947,-0.76929,
-21.7947,0.25659,-43.3333,-41.6667,130.0002,-202.1797,-2.3079,-9.9998,17.1794,2.3079,14.6155,24.8718,1.282,-0.25659,
-17.9487,2.0513,-39.4873,-36.4104,126.1538,-194.8721,-7.6924,-7.6924,16.4102,2.0513,22.564,28.2051,-2.0513,2.0513,
-25.8977,-2.8206,-27.436,-41.2822,127.9485,-198.718,-7.949,-5.8977,17.6921,5.3845,25.8972,28.9744,2.8206,7.9485,
-15.1282,2.8206,-12.436,-43.8462,122.3079,-201.7949,0.25659,-7.9485,12.0515,-0.76929,14.1028,24.3591,2.3079,-0.25659,
-17.6924,1.2822,-15.1279,-38.7178,118.7183,-198.2051,-0.25635,-10.5127,13.0771,0.25635,12.5645,24.8721,1.7949,-4.3589,
-19.4873,3.5898,-30.1279,-35.8975,118.9746,-193.8462,-15.2563,-9.2305,16.9233,6.6665,15.3848,25.6411,-1.5386,1.5386,
-17.1792,5.8975,-24.3589,-32.0513,118.7183,-191.0254,-18.7178,-11.0254,15.1284,3.3335,14.1025,26.4106,-0.25635,0.25635,
-30.5129,2.8206,-15.6409,-28.4617,117.6921,-192.0513,-3.7178,-14.1023,12.5642,0.76929,16.1541,26.9231,-0.76929,-6.9231,
-28.4614,10,-21.7949,-34.1025,118.2051,-193.0769,7.436,-9.4873,11.5386,4.8716,21.7949,21.2822,-4.8716,-4.8716,
-23.8459,7.4358,-18.718,-35.1282,108.4617,-192.5642,-7.564,-10.5129,15.1282,4.8718,19.2307,23.3333,-2.8206,2.8206,
-18.4614,8.7178,-7.6924,-33.3335,100,-200.5129,-22.564,-13.3335,14.3589,2.0513,12.8203,25.6411,-2.0513,2.564,
-18.9744,12.3079,-1.0256,-29.7437,103.5896,-195.3848,-9.7439,-9.7439,13.8459,6.1536,17.4358,17.9485,1.0256,-4.1028,
-29.9998,3.8459,-8.4617,-27.4358,95.6409,-187.4358,5.2561,-14.6155,10.0002,2.3079,16.6667,10.5129,-2.3079,-10.5129,
-14.9998,18.8459,-9.4875,-13.0769,105.8972,-179.7437,-9.7439,-6.4104,17.6921,7.9485,22.3074,25.5129,-1.282,1.282,
-21.5383,11.2825,-16.4099,-20.5125,109.7439,-186.6665,-24.7439,-9.7434,13.8464,6.6667,17.4363,31.7952,-3.0769,3.0769,
-31.7949,4.6155,-14.3591,-32.8206,97.4358,-194.8718,-9.7439,-12.8206,7.6921,4.6155,11.282,19.4871,0.51294,-0.51294,
-16.7949,16.6667,-6.9231,-21.282,89.4871,-193.0769,-12.5642,-3.3333,19.2307,10.5129,20.7693,22.8206,-0.25659,0.25659,
-11.7947,15.3845,-3.0769,-11.282,87.1794,-190.2563,-27.5642,-2.0515,27.6921,12.8206,27.1794,28.2053,-5.6409,2.0515,
-11.2822,13.3335,-5.1279,-21.5386,92.8203,-193.8462,-12.5642,-6.6665,17.9487,10.2563,18.9746,20.5127,-2.0513,2.0513,
-21.282,2.8206,-14.1028,-29.4871,98.718,-191.5386,-0.76929,-11.5388,13.5896,5.3845,16.1536,16.6667,-4.8718,0.76929,
-20.769,7.436,-12.0513,-19.7437,95.1284,-179.2307,-15.7693,-4.8716,20.2563,6.4102,26.9229,18.2051,-3.3335,3.3335,
-13.0769,8.9744,-8.4617,-21.282,80.1284,-185.8975,-15.6409,-7.9485,13.5896,6.4104,23.8459,12.0515,2.8206,-2.8206,
-20,0.5127,-6.6665,-23.5898,65.1284,-189.7437,-17.9487,-12.3076,12.3076,10.769,20,14.8716,4.6152,-0.51269,
-14.1025,7.9487,-11.5386,-18.7178,75.1284,-180.2563,-28.9744,-5.8975,18.2051,10,22.8208,17.1797,-2.3076,2.3076,
-11.5388,7.9485,-16.6667,-17.6926,71.0256,-178.718,-22.8206,-5.385,17.1794,10.5125,19.7434,16.1536,-2.8206,2.8206,
-18.2051,2.3076,-17.6924,-23.333,56.0256,-191.0256,-25.8975,-12.564,4.3589,8.4614,7.9487,12.0513,-2.3076,2.3076,
-11.5383,6.4104,-11.5383,-25.8975,59.2307,-191.0256,-25.8975,-7.949,5.3845,8.4617,13.0769,15.6409,-2.8206,2.8206,
-14.1023,2.3079,-7.9485,-27.4358,57.6921,-180.2563,-10.8975,-2.3079,20.3845,14.1028,25.3845,25.8977,-2.8206,2.3079,
-10.7695,4.6152,-9.7437,-22.0513,48.7178,-173.3335,-18.9746,-6.1538,25.6406,11.2817,23.0767,30.769,-2.0513,2.0513,
-18.4617,2.5642,-15.3845,-13.3333,56.9231,-170.2563,-33.9746,-12.8206,21.5383,2.0515,21.0256,25.6414,-1.5383,1.5383,
-25.3845,0.76929,-18.718,-12.0515,64.3591,-170,-37.6924,-10.0002,26.9231,7.9485,26.9231,25.3845,0.25659,-0.25659,
-10.3845,9.7437,-12.3076,-18.4614,49.3591,-174.8718,-22.6924,-3.0767,31.2822,16.9233,20.5127,28.2051,-2.0513,2.0513,
-12.0515,3.3333,-6.4104,-15.6409,35.6409,-174.1025,-23.3333,-3.8459,33.0769,15.1282,17.1794,29.4871,-3.3333,6.9231,
-12.3076,2.564,-10.2563,-16.9233,37.436,-176.9231,-35.3848,-3.5898,28.7178,10.769,22.0513,29.7437,-2.564,5.1279,
-10.5129,1.282,-12.5642,-25.3845,27.9485,-185.8975,-25.3845,-7.949,15.1282,8.9744,16.6667,25.3845,-1.282,1.282,
-14.6155,0.76929,-10.5129,-22.3079,27.4358,-179.7437,-16.6667,-10.5129,16.1541,11.0256,15.6409,21.7947,-0.76929,3.3333,
