"AF3","AF4","F3","F4","F7","F8","FC5","FC6","O1","O2","P7","P8","T7","T8",
-12.3076,-8.2051,13.8462,-8.2051,81.0259,9.7437,40.5127,-0.5127,-1.5386,-5.6411,0.5127,-10.769,9.231,5.6411,
-14.1028,-7.4363,14.615,-6.9231,85.8972,13.0769,40.2561,-0.76929,-1.282,-6.4104,0.76929,-11.0256,8.9744,4.3586,
-17.1794,-7.4358,15.1282,-5.8972,90.0002,16.1541,38.2053,-1.282,-0.76929,-8.4617,0.76929,-13.0769,6.9231,0.76929,
-10.2566,-4.1028,15.8972,-3.0769,103.0769,25.1282,38.4617,1.0256,-2.5642,-8.718,-1.0256,-10.7693,5.1282,2.5642,
-5.3848,-2.3076,15.6411,-1.7949,115.1279,32.0513,37.1792,1.7949,-6.4102,-10,-4.8721,-10,2.3076,2.8203,
0.25635,-0.25635,15.6411,-0.25635,126.9229,39.7437,36.1538,3.3335,-9.4873,-11.5386,-7.9487,-8.9741,-0.76904,3.3335,
3.0769,-1.0256,12.8206,-1.5383,135.8977,44.6155,32.3079,1.5383,-15.3845,-15.3845,-14.3586,-10.7693,-6.6667,1.0256,
7.4355,-0.25635,11.0254,-1.2822,146.4102,51.0254,30,1.2817,-19.7437,-18.2051,-18.7183,-11.0259,-11.0259,0.25635,
11.282,0.51294,9.7434,-1.0256,157.4358,56.9231,27.6921,1.0256,-24.6155,-20.5129,-23.5896,-11.282,-14.8718,-0.51294,
15.3845,1.0256,8.2053,-1.0256,167.6921,63.0769,25.1282,1.0256,-29.2307,-23.5896,-28.2048,-11.7947,-19.4871,-1.5383,
19.7434,1.7947,6.9231,-0.76929,178.2053,69.4871,22.8206,0.76929,-33.5896,-25.8972,-33.0769,-12.051,-23.8459,-2.3079,
24.1028,2.5642,5.1282,-0.51294,188.718,75.8972,20.5129,0.51294,-37.949,-28.718,-37.4358,-12.3079,-28.2053,-3.0769,
27.9485,3.3333,3.8459,-0.25659,199.7434,81.7947,18.2048,0.25659,-42.8206,-31.0256,-42.3079,-12.5642,-32.0515,-3.8464,
32.051,3.8459,2.3079,-0.25659,209.9998,87.9485,15.6409,0.25659,-47.4358,-34.1028,-46.9231,-13.0769,-36.6667,-4.8718,
36.6667,5.3845,0.76929,-0.25659,221.7947,95.1282,13.5896,0.25659,-52.5642,-35.6409,-53.0769,-13.5896,-41.282,-5.3845,
36.9229,9.2305,5.1279,0,206.7947,95.8975,14.3589,0,-44.6157,-29.231,-48.7183,-11.7949,-34.8721,-5.6411,
36.9229,12.3076,9.2305,0,191.7947,95.8975,14.8716,0,-36.9233,-23.0771,-44.6157,-10.2563,-28.2051,-5.6411,
35.1282,11.5383,8.4617,-0.76929,180.7693,88.4617,18.718,0.76929,-28.9744,-17.1794,-33.0769,-19.2307,-19.2307,-12.051,
32.3076,10.769,11.7949,-6.6665,175.3848,84.1025,24.6152,6.6665,-22.0513,-20,-23.0771,-27.1797,-14.8721,-16.4102,
28.4614,14.6152,11.5386,-11.5386,160.3848,78.2051,26.9229,7.436,-14.1025,-15.1284,-14.6152,-18.7178,-7.436,-7.9487,
20.5132,13.8462,7.1797,-21.0254,145.3848,67.6924,24.6157,4.1025,-10.769,-14.8716,-10.769,-14.3589,-4.6152,-4.1025,
14.3591,5.1282,1.5383,-25.6409,134.8718,57.4358,21.0256,-1.5383,-22.051,-9.2307,-12.8206,-5.1282,-11.7947,4.6155,
11.5383,3.3333,1.282,-24.8718,125.3845,53.5896,19.7434,-1.282,-21.7947,-10.5129,-13.0769,-6.4104,-11.5383,3.8459,
8.9744,1.7947,1.282,-23.8464,116.6667,49.4871,19.2307,-1.282,-20.7693,-11.0256,-13.0769,-7.4363,-10.5129,3.3333,
6.9229,0.25635,1.7949,-22.3076,107.9487,46.4102,18.7178,-0.25635,-19.7437,-11.5386,-12.5645,-7.9487,-9.4873,3.333,
5.1284,-0.5127,2.564,-20.5127,100,43.5898,18.9746,0.5127,-18.4614,-11.2822,-11.7949,-8.2051,-8.2051,3.0771,
3.0769,-1.5383,3.0769,-18.9744,91.282,40.5129,18.4617,1.5383,-17.4358,-11.7947,-11.282,-8.718,-7.1794,3.0769,
1.7949,-1.7949,4.3589,-16.667,83.8462,37.6919,19.2305,2.8203,-15.1284,-11.0259,-10,-8.4619,-4.8721,3.8462,
1.5386,-1.5386,6.667,-13.333,76.9233,36.4102,20.5127,5.6411,-12.3076,-9.7437,-7.6924,-7.1792,-2.0513,5.6411,
0.25635,-1.7949,7.9487,-11.0254,69.4873,34.1025,21.2822,6.9233,-10.5127,-8.9741,-6.4102,-6.9229,-0.25635,5.8975,
-1.5383,-2.5642,8.2053,-8.2048,60.5129,30.2566,20.5129,7.6926,-8.2048,-9.7434,-6.6667,-7.1794,1.5383,5.1282,
-1.282,-2.8206,8.4617,-7.9485,60.2566,30.0002,20.7693,7.4363,-7.9485,-8.9744,-6.9231,-5.8972,1.282,5.8977,
-0.76904,-2.8203,8.9746,-7.9487,59.7437,29.4873,20.769,6.9233,-8.4614,-8.4614,-7.9487,-4.3589,0.76904,6.4102,
0,-3.0767,9.7437,-7.6924,58.9746,28.7183,21.0259,6.667,-8.2051,-7.1792,-8.2051,-3.0767,0,7.1797,
0.25635,-2.8203,10.5132,-6.9229,58.7183,28.4619,20.7695,6.9233,-8.4614,-6.4102,-8.9741,-1.2817,-0.25635,7.436,
0.51294,-3.5896,10.2566,-7.1794,57.949,27.6926,20.5129,6.1541,-8.718,-6.1536,-9.7434,-0.51294,-1.0256,7.6926,
-0.25635,-4.3589,10,-7.9487,56.667,26.4106,19.7437,4.8721,-10,-6.4102,-11.5381,0.25635,-2.3076,7.436,
-0.5127,-5.6411,9.7437,-8.7178,54.8716,24.6152,18.9741,3.5898,-10.769,-6.1538,-12.8203,0.5127,-4.1025,7.1797,
-1.282,-6.9231,9.4871,-8.9744,53.5896,23.3333,17.6921,2.8206,-12.051,-6.4104,-14.6155,1.282,-5.3845,6.4104,
-1.5386,-7.6924,8.7183,-9.7437,52.3076,22.0513,16.9233,1.5386,-12.8203,-6.6665,-15.8975,1.5386,-6.6665,6.1538,
-1.282,-7.4358,9.4871,-9.4871,51.5383,21.7947,17.1794,1.282,-13.0769,-5.8977,-16.6667,3.3333,-6.9231,6.9231,
-0.76929,-7.9485,10.0002,-9.4871,51.0256,20.7693,17.1794,0.76929,-13.0769,-4.8718,-17.1794,4.3591,-7.9485,7.4358,
-0.76904,-7.9487,10.5127,-9.4873,50.5127,20.2563,16.6665,0.76904,-13.5898,-4.3589,-18.2051,5.8975,-8.4614,7.436,
-0.25635,-8.4614,10.5127,-8.9741,50,19.7437,16.6665,0.25635,-13.5898,-3.8462,-18.7178,6.9233,-8.9741,7.9487,
0,-8.2051,11.2822,-8.7178,49.7437,19.4873,16.9233,0,-13.8462,-3.0767,-19.4868,8.7183,-9.2305,8.7183,
0.51294,-8.718,11.7947,-8.718,48.718,18.4617,16.9231,-0.51294,-13.8459,-2.051,-19.9998,9.7434,-10.2566,9.2307,
0.5127,-8.7183,12.3076,-8.2051,48.2051,17.9487,16.4102,-0.5127,-14.3589,-1.5386,-21.0259,11.2817,-10.7695,9.2305,
1.0256,-9.2312,12.3074,-8.2053,47.6921,17.4358,16.4099,-1.0256,-14.3591,-1.0256,-21.5388,12.3074,-11.2825,9.7434,
0.76929,-9.4871,12.5642,-8.4617,46.9231,16.6667,16.1541,-1.7947,-15.1282,-0.76929,-22.8206,13.5896,-12.5642,9.9998,
0.5127,-10.769,12.3076,-9.231,45.1284,14.8721,15.3848,-3.0767,-15.8975,-0.51269,-24.1025,13.8462,-13.8462,9.7437,
-0.25635,-12.0513,11.0259,-10,40.7695,10.5127,14.6157,-4.8716,-16.6665,0.25635,-28.4614,13.5898,-16.1538,8.9746,
-3.0769,-11.282,7.6921,-12.8206,26.1536,8.718,13.8459,-3.0769,-9.7439,3.0769,-20.0002,9.7434,-11.7952,14.3586,
-7.6924,-11.7949,2.564,-16.9229,11.1536,5.6411,11.7949,-2.564,-4.1025,4.6152,-13.3335,5.1284,-8.2051,17.9487,
-6.6667,-11.282,1.0256,-22.051,7.1794,7.1794,14.8718,-1.0256,-3.5896,2.0515,-10.2561,1.0256,-5.6409,13.8464,
-4.3591,-9.4871,0.76929,-25.3845,6.4104,10.0002,20.2566,1.7947,-1.282,1.282,-5.3845,-0.76929,-1.282,11.0256,
-3.8459,-10.5125,-0.76929,-25.8972,6.4104,10.5129,18.718,1.282,-3.3333,0.76929,-6.9231,0.76929,-3.3333,11.5388,
-2.8206,-9.9998,-1.282,-25.3845,7.4358,12.0515,18.2053,1.282,-4.3591,1.282,-7.4358,3.3333,-4.3591,13.0769,
-1.282,-10.0002,-1.282,-24.8718,7.9485,13.5896,17.6921,1.282,-4.8718,1.7947,-7.949,5.8972,-5.3845,14.6155,
-0.76929,-10.0002,-2.3079,-24.8718,8.4617,14.1023,16.6667,0.76929,-6.4104,1.7947,-9.4871,7.9485,-6.4104,16.1536,
-0.25635,-11.0259,-3.8462,-25.3848,8.4614,14.6152,15.1279,0.25635,-8.4619,1.2817,-11.0259,9.4868,-8.4619,16.6665,
0.25635,-11.0259,-4.8721,-25.3848,8.9741,15.6406,14.1025,-0.25635,-10,1.2817,-12.0513,11.5381,-10,17.6924,
1.0256,-11.7947,-5.6409,-25.6409,8.718,16.4104,12.8206,-1.0256,-11.282,1.0256,-13.3333,13.3333,-11.7947,18.4617,
1.7952,-11.5383,-6.4099,-25.3845,9.4871,17.1794,12.0515,-1.282,-12.5642,1.282,-14.6155,15.6414,-12.5642,20.2566,
2.8206,-12.051,-7.4358,-25.3845,10.0002,18.2053,11.0256,-1.282,-14.1023,1.282,-15.6409,17.6926,-14.1023,21.282,
3.8459,-11.5383,-7.9485,-24.8718,11.0256,19.7434,10.5129,-1.282,-15.1282,1.282,-16.1541,20.2566,-15.1282,22.8206,
4.8718,-12.051,-8.4617,-24.8718,11.0256,20.7693,9.4871,-1.7947,-16.1541,1.7947,-17.1794,22.3079,-16.6667,23.8459,
5.3848,-12.564,-8.9746,-25.3848,12.0513,20.769,8.4614,-2.3076,-17.6924,2.3076,-17.6924,24.8716,-17.1797,25.3848,
7.1797,-7.6919,-4.1025,-21.0254,-2.9487,26.1538,10.7695,4.1025,-12.8203,11.7949,-15.3843,34.8721,-14.8716,39.4873,
4.6155,-7.6921,-4.6155,-22.0515,-17.9487,26.1536,8.2048,6.1536,-13.3333,16.4104,-17.4358,40.5129,-17.4358,49.2307,
2.0513,-5.6411,-2.0513,-18.4619,-32.9487,31.7944,7.1792,7.6919,-11.2822,12.3076,-14.8721,33.333,-11.2822,40.5127,
-0.51294,-3.0769,0.51294,-14.8718,-47.9487,37.4358,6.6667,9.2307,-9.7434,8.2053,-12.3074,26.1541,-4.6155,31.282,
2.3079,-6.4104,-2.3079,-18.718,-62.9487,33.5896,3.3333,9.9998,-11.0256,12.5642,-15.1282,34.6155,-10.5129,40.7693,
7.436,-7.9487,-2.8203,-20.2563,-61.7949,32.0513,2.8203,13.5898,-10,19.7437,-15.6411,44.8716,-14.1025,52.0513,
3.5898,-8.7183,-3.5898,-18.9746,-67.1797,28.7178,4.6152,9.7437,-7.1797,21.0254,-13.3335,45.6411,-10.7695,45.6411,
2.0515,-7.6921,-2.0515,-15.3845,-70.2563,28.2053,8.718,7.6921,-2.0515,24.6155,-8.2053,48.2053,-5.1282,41.5383,
0,-11.2822,0,-17.9487,-66.667,27.1792,7.1792,6.6665,-4.6157,22.564,-10.7695,41.0254,-8.2056,43.0767,
-1.7949,-15.1284,1.7949,-20.7695,-62.8206,26.4102,4.8716,5.8975,-7.9487,20.769,-13.0771,33.5894,-12.0513,44.8716,
-1.0256,-11.282,1.0256,-17.4358,-52.3076,28.718,6.6667,6.1541,-4.6155,16.4104,-8.718,32.8206,-7.1794,42.5642,
-0.25659,-7.9485,0.25659,-14.1023,-41.7949,30.0002,8.4617,5.8977,-1.7947,11.5383,-4.8718,31.0256,-3.3333,40.2566,
-2.3079,-8.4617,2.3079,-13.5896,-43.8462,31.0256,6.4104,4.8718,-2.8206,21.282,-6.9231,39.7434,-5.8972,46.4104,
-3.5896,-8.718,4.6155,-12.3079,-45.1282,32.3079,4.6155,3.5896,-4.1028,31.282,-8.718,48.2053,-8.718,52.3079,
-15.6411,-15.1284,2.3076,-18.2051,-56.1538,22.8203,5.8975,1.2822,-1.2822,16.6665,-6.9233,34.1025,-6.4102,38.7178,
-19.7437,-11.5386,0.25635,-18.2051,-55.1282,22.8203,4.8716,5.8975,-2.3076,10.5127,-6.4102,20.2563,-0.25635,37.1797,
-20.5127,-8.7178,-1.5386,-17.9487,-53.3333,22.564,4.6152,7.1797,-5.6411,11.2822,-8.7178,16.9229,1.5386,36.4102,
-17.9485,-10.2561,3.0769,-11.282,-51.282,25.1282,2.5642,5.6414,-6.6667,12.8206,-7.1794,24.1028,-2.5642,33.8464,
-9.231,-5.6411,9.7437,-2.564,-36.4104,36.4102,2.0513,9.7437,-5.6411,16.4102,-4.6152,34.3589,-2.0513,46.6665,
-7.6924,-6.6665,6.6665,-10.2563,-26.6665,32.8203,3.5898,3.0771,-5.1284,14.8716,-8.7178,41.5386,-3.0771,50.769,
-10.7693,-3.0769,4.1023,-13.3333,-22.5642,33.3333,3.0769,5.1282,-5.6414,23.0769,-8.718,54.3586,-8.2053,48.2048,
-17.436,-7.1792,2.0513,-16.9229,-34.3589,35.8975,0.5127,7.6924,-0.5127,25.1284,-4.6152,45.1284,-5.1279,38.4614,
-25.3845,-15.1282,-2.3079,-27.4358,-44.3589,34.6155,-2.3079,2.8206,4.8718,16.1541,-1.282,30.1284,1.282,32.0515,
-26.4099,-9.9998,-3.8459,-26.4099,-33.5896,38.2053,-0.76929,5.3845,0.76929,15.6414,1.282,32.0515,-1.282,40.7693,
-17.6924,-6.4102,0.76904,-19.7437,-28.9741,36.6665,2.8208,4.3589,-4.3589,16.1538,-0.76904,31.0259,-7.436,37.1797,
-6.667,-2.0513,6.6665,-13.8462,-24.1025,37.9487,2.0513,5.6411,-5.6411,10.2563,-3.5898,19.4868,-6.667,27.1792,
-8.4614,-2.8203,5.8975,-16.6665,-26.4102,39.231,0.25635,6.9233,-0.25635,6.9233,-3.8462,16.1538,-2.8203,27.436,
-15.8975,-11.7949,-2.564,-27.1797,-34.3589,35.3848,1.5386,5.6411,6.1538,16.9229,-1.5386,31.1538,-2.564,38.4614,
-19.7434,-7.9485,-10.5129,-27.9485,-31.0256,37.6921,-0.25659,8.4617,4.8718,26.4104,0.25659,45.8972,-1.7947,44.8718,
-21.0256,-8.718,-9.2307,-27.1794,-26.6667,35.8972,-1.0256,4.6155,2.5637,18.9744,-1.0256,33.8459,1.0256,30.2561,
-14.8718,-11.282,-4.6155,-27.6921,-15.8977,36.4104,1.0256,6.1541,1.5383,15.8972,-1.0256,25.6409,-1.0256,26.6667,
-8.9741,-6.9229,-0.25635,-26.9229,-4.3589,40.769,5.8975,9.4873,0.25635,20.2563,-1.7949,28.9746,-2.8203,38.7178,
-8.718,-5.6409,-0.51294,-23.5896,-2.051,47.1794,5.6414,6.6667,-1.5383,18.4617,-1.5383,24.1028,0.51294,41.0256,
-8.4617,-2.8206,-5.8972,-17.1794,-2.3079,59.2307,-0.76929,10.5129,0.25659,22.3079,-0.25659,32.5642,2.3079,37.6921,
-9.7439,-5.6414,-1.0256,-17.949,-5.1282,57.4358,-2.0515,8.718,4.615,23.0769,-3.0769,39.4871,1.0256,37.4358,
-9.4871,-8.9744,4.3591,-17.1794,-1.282,52.0515,-1.7947,5.8977,1.282,20.2566,-6.9231,31.5383,-1.282,41.282,
-6.9229,-10,0.25635,-13.0767,8.9746,51.0259,-0.25635,5.3848,-4.3589,18.7178,-6.9229,23.3335,-3.8462,31.5386,
-5.3848,-8.9741,0.76904,-13.0767,13.5898,51.0259,-0.76904,5.3848,-4.3589,17.1797,-6.9229,21.2822,-4.3589,30,
-4.3591,-8.9744,1.282,-13.5896,17.6921,50.5129,-1.282,4.8718,-5.3845,15.6409,-7.949,18.718,-4.8718,28.4617,
-2.8203,-7.9487,1.7949,-13.5894,22.3076,50.5132,-1.7949,4.8721,-5.8975,14.1025,-7.9487,17.1797,-4.8716,27.436,
-2.0513,-7.1792,2.0513,-13.8457,26.1543,50.2568,-2.0513,4.6157,-6.6665,12.3081,-8.2051,14.8721,-5.1279,26.1543,
-1.5386,-7.1797,1.5386,-14.8716,29.7437,49.231,-3.5898,3.5898,-7.6924,9.7437,-9.231,11.7949,-6.6665,23.5898,
-1.282,-7.9485,1.282,-16.1536,33.0769,47.949,-4.8718,2.3079,-9.4871,7.4358,-11.0256,8.4617,-7.9485,21.282,
-0.76929,-7.949,0.76929,-18.2053,36.6663,47.9485,-6.9231,0.76929,-11.0256,4.3586,-12.5642,5.3845,-9.4875,19.2307,
0.51294,-9.2307,-0.51294,-15.3845,29.2307,39.4871,-8.2048,2.5642,-7.1794,10.7693,-10.2561,19.4871,-7.6921,20.5129,
0.25635,-14.6152,-0.25635,-17.1792,44.2307,34.6157,-1.7949,0.25635,-8.4614,13.0771,-10.5127,24.8721,-6.9229,23.8462,
-0.51294,-7.1794,-0.51294,-16.9231,59.2307,39.9998,5.6409,0.51294,-5.1282,16.4104,-6.6667,22.5642,-1.5383,29.2307,
-6.9229,-7.4355,-4.8716,-24.3589,74.2307,29.4873,8.9746,-5.3843,-0.25635,8.9746,-2.3076,13.0771,0.25635,21.2822,
-2.051,-7.6921,-3.5896,-23.0769,89.2307,23.5896,12.8206,-3.5896,-0.51294,6.1541,0.51294,11.282,-1.0256,17.4358,
3.3333,-12.051,0.76929,-21.7947,104.2307,15.6414,14.1028,-6.4099,-2.8206,1.7952,-3.8459,-0.76929,-0.76929,8.9744,
3.5896,-13.8459,1.5383,-23.0769,119.2307,9.7439,14.8718,-9.2307,-2.051,-0.51294,-3.0769,-7.1794,0.51294,5.1282,
0.5127,-11.2822,-2.0513,-25.1279,134.2307,14.8721,15.8975,-8.7178,-1.5386,0,1.5386,-1.0254,0,12.8208,
-4.3591,-17.1794,-2.3079,-29.4873,139.2307,14.1023,14.6155,-9.4875,1.282,-2.8206,3.3333,-1.282,3.8459,8.9744,
-8.4617,-16.6667,-2.8206,-26.9233,124.2307,14.6155,8.4612,-7.949,1.282,-1.282,3.8459,-5.3845,7.4358,1.7947,
-6.1541,-11.7952,-2.5642,-26.6667,125.1282,19.9998,12.3074,-9.2307,6.6667,-1.0256,10.7693,-16.9231,13.3333,1.0256,
-3.0769,-15.8972,-1.0256,-29.2307,128.2053,15.8972,15.8972,-7.1794,9.2307,-4.6155,9.2307,-24.1025,12.3079,1.0256,
-5.8975,-17.1797,-2.3076,-24.8716,121.7949,14.1025,11.0254,-2.3076,0.25635,-0.25635,0.76904,-9.4873,3.8462,3.8462,
-6.6667,-15.3845,-2.5642,-26.6667,113.3333,20.0002,8.2053,-8.2048,-2.5642,5.6409,-0.51294,3.5896,0.51294,8.718,
-6.6665,-15.8975,-7.6924,-29.7437,109.7437,24.1025,4.6152,-12.3076,-1.5386,10.2563,-0.5127,10.769,0.5127,15.3848,
-11.0256,-23.3333,-14.1028,-34.1025,103.3333,15.6409,0.76929,-10.5129,-0.76929,6.9231,-2.3079,7.4358,0.76929,5.8972,
-7.949,-22.8206,-11.5388,-37.6924,102.8206,9.9998,5.8972,-10.0002,3.8459,5.3845,1.282,-6.9231,6.4099,-1.282,
-4.6152,-11.7949,-8.2051,-34.8718,110.769,15.8975,9.2305,-10.7695,1.5386,6.6665,3.0767,-17.9487,9.7437,-1.5386,
-5.3843,-13.5898,-2.3076,-31.5383,112.0513,15.6411,12.564,-11.0254,4.3589,3.8462,2.3076,-20.769,12.0513,-6.9229,
-5.3848,-16.6665,-3.8462,-36.6667,112.0513,16.1538,13.0767,-6.4102,5.8975,6.4102,1.2822,-6.9233,10.5127,-1.2822,
-7.1794,-17.4358,-12.8206,-49.231,106.1536,13.3333,7.6921,-13.3333,0.51294,6.6667,-0.51294,2.5642,5.1282,-2.0515,
-6.1538,-18.9741,-9.2305,-54.8716,106.1538,10.7695,6.1538,-17.9487,0,2.0513,1.5386,0,5.6411,-1.0254,
-6.9233,-17.6924,-8.4614,-57.6924,112.564,14.6152,3.333,-9.4873,-2.3076,1.7949,0.25635,-0.25635,3.333,11.5386,
-8.4617,-18.718,-11.0256,-59.7437,108.9744,11.0256,4.8718,-9.4871,0.25659,1.282,-0.25659,-3.3333,3.8459,0.76929,
-0.76929,-13.0769,-3.8459,-49.4871,113.5896,16.6667,10.5129,-8.4617,7.949,0.76929,8.4617,-6.4104,10.5129,-9.4871,
2.3076,-11.5386,-2.3076,-44.8718,114.6152,20.2563,9.4873,-8.4614,5.3848,-4.8721,8.4614,-16.6665,10,-2.3076,
0.5127,-13.3335,-1.5386,-46.6667,108.7178,15.8975,10.769,-6.667,3.5898,-0.5127,5.1279,-13.8462,12.3076,-2.0513,
-3.5898,-15.8975,-4.6152,-45.1282,106.1538,18.9741,6.1538,-1.0259,-0.5127,6.6665,0.5127,1.1538,10.2563,-11.2822,
2.3076,-16.1538,-4.8716,-44.8716,105.8975,25.3848,6.4102,-6.4102,-2.3076,2.8208,-2.3076,8.9746,4.3589,-6.9229,
2.8206,-15.1282,-5.3845,-42.8206,105.3845,26.4104,5.8972,-6.9231,-2.8206,3.3333,-2.8206,8.9744,3.8459,-6.4104,
2.8206,-14.6155,-5.8972,-41.282,104.8718,27.4358,5.3845,-7.4358,-2.8206,3.3333,-3.3333,8.9744,2.8206,-5.8972,
3.8464,-13.0769,-5.8972,-38.7178,104.8718,29.4875,5.3845,-7.4358,-2.8206,4.3591,-3.3333,9.4875,2.8206,-4.8718,
4.3589,-11.5386,-5.8975,-36.1541,105.3843,31.0254,4.8716,-7.436,-2.3076,4.8716,-3.3335,9.4873,2.3076,-3.3335,
5.3843,-10,-5.8975,-33.5898,105.3843,32.564,4.8716,-7.436,-2.3076,5.8975,-3.3335,10,2.3076,-2.3076,
5.6411,-9.231,-6.1538,-31.7949,105.1279,33.8462,4.6152,-7.6924,-2.0513,6.1538,-3.5898,10.2563,1.5386,-1.5386,
6.9229,-7.436,-6.4102,-28.4614,104.8716,36.1538,3.8462,-8.4614,-1.7949,7.436,-3.8462,10.5127,0.25635,-0.25635,
13.8462,-7.1797,-2.564,-28.7178,100,50.769,2.564,-7.1797,-3.5898,-3.5898,-3.0771,4.1025,4.1025,5.6411,
14.1025,-10.5127,-7.436,-32.0513,87.9487,62.3076,-1.2822,1.2822,-5.8975,-1.2822,-1.7949,5.8975,3.8462,5.3848,
8.2053,-13.8459,-13.3333,-31.7947,72.9487,67.1794,-10.7693,1.5383,-7.1794,9.2307,-1.5383,20.8975,-3.0769,6.6667,
12.5642,-10.0002,-6.4104,-26.4104,59.2307,76.1536,-13.0769,1.282,-4.3591,13.5896,-1.7952,30.5129,-1.282,20.7693,
8.9746,-10,-7.436,-28.9741,68.9746,74.1025,-14.1025,2.3076,-10,5.3848,-11.0254,17.6924,-2.3076,15.6411,
1.5383,-14.8718,-8.718,-30.7693,78.4617,66.6667,-9.7434,1.0256,-6.1541,0.51294,-11.282,5.6409,-0.51294,3.0769,
1.7947,-13.0769,-7.4358,-23.3333,81.282,74.1028,-15.1282,1.7947,-7.4358,4.8718,-9.9998,16.6667,-1.7947,15.1282,
6.667,-9.7437,-5.6411,-19.4873,83.0771,82.0513,-17.9487,3.5898,-9.2305,10.2563,-11.2817,31.6667,-3.5898,23.5898,
6.9231,-12.5642,-4.3591,-22.3079,92.5637,80.2561,-14.1028,2.8206,-3.3337,14.1023,-8.9744,37.1794,-2.8206,11.5383,
6.667,-12.3076,-6.1538,-21.0254,99.4873,79.4873,-15.3843,4.1025,-4.1025,12.8208,-7.6924,26.1538,-4.1025,10.2563,
12.3076,-10.7695,-2.0513,-17.9487,97.9487,80,-13.3335,2.0513,-5.6411,2.564,-10.2563,11.1538,-4.6157,12.3076,
14.3589,-10.2563,0,-18.4614,105.1284,77.9487,-11.7949,3.0771,-9.2305,0,-10.769,2.564,-3.5898,5.1284,
10,-12.0513,-4.8721,-19.7437,106.9229,72.0513,-15.1284,2.3076,-10,4.3589,-10.5127,3.3335,-2.3076,4.3589,
16.4104,-8.2048,-1.0256,-11.7947,109.2307,75.8977,-14.3586,1.0256,-5.1282,12.3079,-10.2561,16.9231,-4.1023,13.3333,
15.8975,-5.6411,-2.0513,-10.2563,114.8716,82.0513,-15.3848,2.0513,-7.6924,16.9229,-9.7437,23.0771,-7.1797,7.6924,
9.2305,-5.6411,-3.5898,-18.4614,120,76.9229,-11.7949,0,-5.6411,16.9229,-4.6157,15.8975,0,2.0513,
11.282,-3.0769,-2.5642,-17.4358,135,79.4871,-10.7693,1.0256,-5.1282,21.0256,-5.1282,26.1541,-1.0256,17.0513,
10,-7.436,-1.7949,-10,142.8208,81.2822,-12.564,1.7949,-5.3848,26.9233,-10,40.7695,-7.9487,23.8462,
4.1025,-11.7949,-2.0513,-13.3335,136.4102,69.7437,-12.8208,2.0513,-3.0771,23.0767,-6.667,35.8975,-4.1025,8.8462,
-0.51294,-6.6667,-9.7434,-23.0769,147.6921,71.282,-15.8977,3.0769,-5.1282,8.2053,-1.5383,20.8975,0.51294,5.1282,
-3.8462,-9.4873,-12.564,-31.0254,162.6921,81.2822,-14.6152,0.25635,-3.3335,-0.25635,0.76904,10.5127,1.2822,10.5127,
-5.1284,-12.3076,-8.2051,-30.769,177.6921,85.1284,-15.3848,1.0254,-4.1025,6.1538,0.5127,18.4614,-0.5127,9.231,
-4.6152,-5.6406,-4.6152,-21.0254,189.7437,84.1025,-12.3076,4.6157,-3.5894,12.3081,0,24.6157,0,5.6411,
-6.9231,-5.8972,-2.3079,-20.7693,191.5383,83.3333,-8.4617,3.8459,0.25659,12.0515,-1.7947,20.7693,-0.25659,11.0256,
-11.2822,-4.6152,-5.6411,-28.2051,195.8975,87.6924,-12.8203,8.7178,-0.5127,17.436,0.5127,33.3335,-1.5386,26.0256,
-16.6667,-11.5383,-12.5642,-35.6409,203.8464,82.3079,-14.1023,3.8464,-2.8206,14.6155,2.3079,35.6409,-2.3079,16.1541,
-12.564,-12.564,-10,-27.436,216.6665,81.7949,-9.4873,1.7949,0.76904,12.0513,-0.76904,25.8975,-0.76904,6.4102,
-7.6926,-6.6667,-5.1282,-20.0002,202.5637,83.5896,-10.7693,5.6409,1.0256,13.3333,-5.6414,22.051,-1.0256,9.2307,
-6.6667,-7.6921,0.51294,-19.4871,187.5637,81.5383,-11.282,4.1028,-3.0769,12.3079,-6.6667,21.0256,-0.51294,7.6921,
-6.9231,-9.9998,0.76929,-18.718,187.4363,84.8718,-13.0769,6.4104,-7.4358,10.0002,-6.9231,21.7952,-0.76929,5.3845,
-6.1538,-13.3335,-2.5645,-26.667,202.4363,83.5894,-11.2822,7.1792,-2.0513,6.1538,-3.5898,21.0254,2.0513,8.2051,
-5.8975,-15.6406,-5.3843,-32.564,201.7949,80.2563,-11.5381,1.7949,-2.3076,6.4106,-1.7949,23.3335,1.7949,17.1797,
-5.3845,-8.4617,-4.8718,-23.3333,189.4871,87.9485,-11.5383,5.3845,-4.8718,9.4871,-3.3333,19.7434,3.3333,22.3074,
-5.6411,-6.6665,-2.0513,-19.4873,180.5127,90.2563,-10.2563,4.6152,-1.5386,1.5386,-6.1538,4.7434,6.1538,7.3074,
-4.1025,-7.1797,2.0513,-16.9233,189.2305,88.7178,-9.231,4.6152,-3.0771,3.0767,-5.6411,4.6152,5.1279,-2.0513,
-9.2305,-13.333,0.51269,-22.0513,195.8975,85.6411,-11.2817,1.0259,-6.6665,6.667,-9.2305,4.1025,3.0771,-0.5127,
-11.7947,-12.8206,-5.1282,-25.6409,210.8975,92.3079,-10.2566,3.0769,-3.0769,10.2566,-8.718,14.8718,4.6155,11.7947,
-4.615,-7.1794,-5.1282,-21.0256,225.8975,103.5901,-7.6921,8.718,-3.0769,17.949,-3.0769,29.8718,3.0769,25.1282,
-0.25635,-9.4868,0.25635,-21.2817,240.8975,105.3848,-7.4355,1.7949,-7.4355,14.1025,-6.9229,30,-3.8462,26.4106,
0,-7.6924,0,-18.9746,255.8975,114.3589,-8.2051,1.5386,-12.3076,10.2563,-12.8208,28.7178,-7.6924,21.0254,
1.282,-4.8718,-1.282,-17.1794,270.8975,117.6921,-2.8206,5.3845,-6.9231,15.1282,-6.9231,36.1541,-2.8206,10.0002,
5.6409,-4.6155,-1.0256,-20.5129,285.8975,115.8972,-1.5388,1.0256,-3.0769,14.8718,-2.0515,27.1794,-2.0515,13.8459,
6.6665,-3.0771,-2.0513,-15.8975,291.2817,124.6152,-10.7695,2.0513,-7.6924,12.8203,-5.1284,20,-3.5898,28.8459,
0,-10.769,-0.51269,-16.4102,289.7437,122.5645,-12.8203,4.6157,-7.6924,12.3076,-9.2305,21.0259,0,20,
-0.5127,-11.7949,-3.0771,-20.5127,304.7437,110.769,-7.6924,5.6411,-7.6924,13.8462,-11.7949,24.1025,0.5127,13.8462,
6.4102,-5.8975,-3.8462,-21.2817,319.7437,105.3848,-0.25635,-3.333,-3.8462,11.0259,-10,19.231,0.25635,14.6157,
10.2563,-7.6924,-1.5386,-26.6665,334.7437,101.5386,2.0513,-10.2563,-3.0771,2.0513,-9.231,4.231,3.5898,-0.38428,
14.3586,-4.6155,-1.5383,-28.2053,349.7437,106.6667,9.2307,-4.6155,1.0256,0.51294,-0.51294,-4.1028,12.8206,-15.3843,
14.1028,-7.4358,-5.3845,-33.0769,364.7437,107.949,16.1541,-10.5129,3.8464,-3.3333,3.3333,-8.4617,12.0515,-17.1794,
15.3845,-6.6667,-2.051,-29.2307,354.8718,120.5129,13.3333,-9.2307,-1.0256,1.0256,3.0769,-6.1536,6.6667,-16.4104,
13.3335,-7.1797,0.5127,-23.5898,341.0254,134.8716,9.7437,-4.1025,-5.1284,4.6152,-0.5127,-1.0259,7.1792,-9.231,
12.564,-12.564,0.25635,-25.3848,326.0254,134.1025,10.5127,-11.5386,-4.8721,-0.25635,-10,-0.76953,4.8716,5.3848,
15.3848,-5.6411,2.0513,-24.1025,311.0254,136.4102,9.231,-13.3335,-5.6411,-2.0513,-12.8208,-3.0771,3.0767,7.6924,
22.0513,0.5127,8.7178,-17.436,296.0254,141.0254,13.3335,-4.6152,-0.51269,-1.5386,-1.5386,-5.1284,13.3335,-7.3076,
21.7952,-5.3845,2.3079,-19.7434,281.0254,135.1282,11.5388,-11.0256,-0.76929,-4.3586,0.76929,-6.9231,8.4617,-22.3076,
15.8975,-5.1279,-7.1792,-26.6665,266.0254,131.7949,12.3081,-17.4355,2.0513,-2.0513,2.5645,-7.6919,2.5645,-7.3076,
9.4871,-7.949,-10.5129,-35.1284,251.0254,131.0256,8.4617,-15.6414,0.76929,-0.76929,4.3586,-3.8464,2.8206,-6.9231,
12.3076,-14.3589,-9.2305,-30.2563,236.0254,134.3589,2.564,-12.3076,-7.1792,4.1025,0,0,1.5386,-21.9231,
13.5901,-15.6409,-6.9231,-28.4612,222.3079,128.4617,9.4875,-17.6921,0.76929,4.3591,-0.76929,-15,6.9231,-8.4612,
0.76929,-18.2048,-14.615,-36.1536,207.3079,117.6926,2.3079,-24.3586,-0.76929,3.3337,-7.9485,0,2.3079,-18.2048,
12.5642,-9.9998,-3.8459,-21.1536,202.3079,132.0515,2.3079,-9.3586,-2.3079,18.3337,-6.4104,15,3.3333,-33.0769,
19.4871,-17.9485,1.0256,-23.5896,192.3079,129.7439,0.51294,-16.4099,-4.1023,13.3333,-11.7947,26.1541,-0.51294,-19.4871,
17.9487,-13.3335,0,-26.6665,186.1538,128.7178,0,-20,-4.1025,8.7178,-11.7949,11.1541,0.5127,-4.4871,
18.4617,-9.2307,-1.0256,-23.5896,178.4617,131.7952,2.5642,-13.3333,-2.051,16.4104,-10.2561,6.1541,1.0256,-12.8206,
18.7178,-12.564,-4.3589,-24.8716,165.8975,130,3.3335,-16.1538,-0.76904,9.4873,-6.9229,10.5127,0.76904,-13.5898,
17.6926,-10.5129,-4.8718,-23.8459,162.3079,124.8718,2.3079,-18.718,-0.76929,-2.3074,3.3333,-4.4873,8.4617,0.76929,
20.5127,-11.2817,2.0513,-24.6152,160.5127,116.4102,6.1538,-23.5898,-2.0513,-7.6924,5.6411,-19.4873,8.7183,-11.2817,
24.6152,-6.1538,3.5898,-23.5898,160,119.4873,11.2822,-20,-3.5898,-7.1792,4.1025,-14.3589,6.1538,-12.3076,
25.8972,-7.4358,2.3079,-22.3079,148.4617,119.2307,10.5129,-15.1282,-2.3079,-7.9485,2.3079,-21.282,7.4358,-7.9485,
28.2051,-13.8462,3.0771,-20.5127,133.8462,112.8203,3.0771,-17.436,-6.6665,-2.0513,-6.1538,-6.282,2.0513,-8.2051,
30.769,-9.231,3.0767,-20.5127,127.6924,113.8462,2.0513,-23.5898,-10.2563,0.5127,-13.3335,4.6152,-0.5127,-9.231,
36.9233,-3.0767,13.3335,-9.7437,120.5127,118.9746,14.3589,-18.9741,0.51269,-0.5127,-9.2305,-10.3848,7.6924,-5.6411,
30.0002,-14.6155,7.4358,-10.5129,105.5127,111.5383,1.282,-19.7434,-8.4617,1.282,-18.2048,0.76929,-5.3845,-0.76929,
29.7434,-14.8718,2.051,-19.4875,90.5127,109.7434,-1.0256,-24.1028,-7.1799,13.3333,-12.8206,15.7693,-3.0774,1.0256,
30,-10.5127,0.25635,-27.4355,98.2051,105.8975,8.9746,-24.8716,-0.25635,6.9233,-1.2817,0.76929,7.9487,-6.9229,
27.1794,-13.8459,-3.0769,-25.1282,100.5129,105.6409,9.2307,-17.9485,-4.1023,-0.51294,0.51294,-14.2307,5.6409,2.0515,
25.8975,-19.7437,-1.7949,-23.8462,85.5129,106.4102,6.9229,-21.2822,-5.3848,2.8203,-4.3589,-3.3335,1.7949,16.1538,
23.8464,-13.0769,-1.282,-23.3333,78.718,106.4104,4.3591,-24.8718,-6.9231,3.3337,-7.4358,-5.8972,1.282,11.0256,
23.8462,-11.5381,-0.25635,-20.2563,78.7183,103.8462,4.8721,-23.8462,-2.8203,0.25635,-2.8203,-19.2305,2.8208,4.8721,
22.8206,-20.7693,-0.76929,-24.8718,66.9231,98.2053,0.76929,-25.8972,2.8206,-4.8718,-6.4104,-18.2053,4.3591,9.4871,
22.3074,-13.5901,-1.282,-25.3845,61.282,103.8459,1.282,-20.7693,2.3074,-3.3333,-10.5129,-16.1541,8.9744,8.9744,
27.436,-5.8975,7.9487,-20.2563,65.3848,107.9487,12.564,-18.7178,2.3076,-3.3335,-3.8462,-15.1284,9.4873,-2.3076,
38.2051,-9.4873,12.0513,-12.0513,70,105.8975,10,-17.6924,-3.8462,-2.3076,-2.8203,-0.12842,-3.8462,4.3589,
38.9744,-15.3845,1.0256,-15.8977,60.5129,99.4871,2.051,-20.5129,-11.282,-1.0256,-7.6926,11.282,-10.2566,16.9231,
36.1536,-15.6414,-0.76929,-23.3337,52.5637,98.2048,6.9231,-23.3337,-6.9231,0.76929,-3.8464,7.9485,-1.7952,15.1282,
34.8718,-12.8206,0.51294,-21.5383,52.8206,100.0002,6.1541,-21.5383,-6.1536,-0.51294,-0.51294,5.1282,-3.0769,8.2053,
38.2053,-11.5383,3.3333,-17.1794,46.4104,98.2053,8.4617,-22.8206,-2.3079,-2.8206,-0.25659,-1.7947,0.25659,9.4871,
37.436,-12.3076,4.6152,-20,38.9746,97.9487,9.231,-25.6411,-4.1025,-2.0513,-4.6152,-10.769,2.0513,9.231,
34.3591,-11.282,5.1282,-21.0256,31.7952,101.0256,7.6926,-21.0256,-1.5383,-1.5383,-8.2048,-12.8206,1.5383,7.1794,
31.0256,-16.1536,1.7952,-24.3591,16.7952,95.1282,4.3591,-26.4104,0.76929,-7.9485,-12.051,-12.5642,-0.76929,7.4358,
40.2563,-8.9741,2.8203,-18.7178,26.4102,103.3335,7.436,-25.3848,-1.7949,-0.76904,-3.8462,-0.76904,0.76904,16.6665,
44.8718,-8.9744,5.3845,-16.1536,32.5642,101.7947,8.4617,-21.282,-7.4358,-0.76929,0.25659,-0.25659,-1.282,4.3591,
45.1284,-10.769,9.7437,-9.7437,23.5898,96.9229,6.1538,-15.8975,-7.1797,-2.0513,-5.1284,2.0513,-2.0513,3.0771,
41.5386,-10.769,6.6665,-8.2051,29.7437,97.9487,8.2051,-19.4873,-6.6665,-3.0771,-12.8203,0.5127,-0.5127,17.436,
39.4873,-10.769,6.6665,-18.4614,44.7437,97.9487,16.9229,-26.6665,-4.1025,-6.1538,-9.231,-11.7949,4.1025,14.3589,
40,-8.2051,8.7178,-24.6152,59.7437,92.3076,20.5127,-27.1797,-0.51269,-8.7183,-1.5386,-16.4102,8.7178,0.5127,
33.5896,-11.0256,8.9744,-25.8972,74.7437,77.6921,20.7693,-30,3.3333,-11.5383,-3.3333,-21.282,9.4871,-11.0256,
30.2563,-6.6665,10.769,-22.564,89.7437,74.3589,24.6152,-28.2051,2.0513,-10.2563,-2.0513,-27.1792,12.3076,-4.6152,
32.0513,-4.8721,4.8716,-26.4104,104.7437,70.5127,25.3848,-28.9744,-3.3335,-14.6152,0.76904,-33.5898,12.0513,-0.76904,
30.5129,-13.5896,-2.8206,-36.6665,119.7437,61.282,24.3591,-35.6409,2.8206,-18.718,11.5383,-32.0513,13.0769,-12.051,
20.5129,-12.3079,-9.2307,-38.9744,116.4099,62.5642,17.4358,-33.8462,9.2307,-10.2566,24.1023,-21.5386,16.4099,-12.8206,
12.3076,-11.7949,-8.7178,-40.5127,109.231,55.3848,14.8721,-32.3076,8.2051,-8.2051,21.5386,-27.6921,18.4614,-11.2817,
14.6155,-17.1794,-3.3333,-40.2563,106.4104,42.3079,16.6667,-33.0769,3.3333,-18.718,12.0515,-42.3076,15.6414,-9.4871,
9.7434,-15.8977,-3.0769,-36.9231,93.3333,46.6667,14.3586,-30.7693,3.0769,-26.6667,12.8206,-46.6667,14.3586,-13.8464,
0.25635,-15.1284,-0.25635,-37.1797,78.3333,48.9741,13.5894,-33.5898,5.3843,-27.436,17.1792,-49.4873,19.7437,-28.8464,
2.051,-17.4363,1.0256,-34.3591,78.9744,39.4871,12.3074,-35.3848,-1.0256,-30.2566,10.2561,-56.9233,19.9998,-35.8977,
5.8975,-16.6665,-0.76904,-32.5642,78.2051,36.1538,14.1025,-35.6411,0.76904,-36.6667,7.9487,-63.8462,17.6924,-32.0513,
2.3076,-15.6411,-2.3076,-39.2307,65.3848,42.3076,10.5127,-38.2051,2.3076,-31.5386,7.9487,-59.2307,12.564,-36.6667,
8.7183,-12.8203,0,-32.8203,71.2822,51.7949,4.1025,-32.3076,0,-16.5386,10.2563,-44.2307,12.3076,-24.6152,
16.1541,-14.1028,0.25659,-25.3845,82.3079,46.9231,1.282,-34.1025,-0.25659,-19.7434,8.9744,-39.7437,11.5383,-12.5642,
19.4871,-3.0769,-0.51294,-21.5383,88.718,51.282,3.5896,-28.718,0.51294,-21.0256,8.2048,-33.8462,11.282,-14.3591,
15.6409,-2.3079,-0.76929,-23.8464,80.7693,55.1282,3.8459,-22.3079,0.76929,-15.6414,11.0256,-26.9233,16.6663,-19.7439,
13.333,-14.8721,0.5127,-28.718,67.6924,50.769,-0.5127,-26.6667,1.0254,-15.3848,10.769,-23.0771,16.4102,-12.3076,
14.1025,-9.4873,5.3843,-24.8721,58.2051,53.5894,-1.7949,-22.8208,1.7949,-11.5386,10,-17.6924,18.2051,-2.3081,
2.0513,-7.6924,8.2051,-26.1538,43.2051,43.0771,-2.0513,-24.6152,4.1025,-18.9744,9.231,-31.7947,22.0513,-13.8462,
1.282,-5.3845,12.5642,-18.2053,28.2051,39.2307,-1.282,-21.2822,8.4617,-12.0515,19.7434,-25.3848,26.4099,-13.5898,
2.8206,-10.5127,8.4617,-18.7178,17.1794,37.6926,-5.3845,-19.7434,8.9744,-2.8206,26.4104,-10.3848,25.8977,-10,
2.3076,-13.0771,4.8716,-30.5129,7.9487,32.0513,-2.3076,-19.231,20.2563,-6.9233,35.1279,-18.718,37.1792,-11.5386,
0.51282,-5.1281,3.5897,-28.205,7.6923,32.8204,-0.51282,-11.7948,28.2052,-9.2306,45.1281,-33.718,45.6412,-3.0768,
2.0514,-3.077,6.6666,-20.0001,10.2565,25.6412,-5.1283,-12.3077,24.6154,-6.6666,41.0255,-29.2308,38.4615,-2.0514,
5.6411,-9.231,7.1792,-20,14.3589,10.6412,-16.4104,-20.5129,14.8716,-5.6411,29.231,-14.3591,25.6411,-11.7949,
9.7434,-10.7693,8.718,-19.4873,8.2048,3.5896,-20.5129,-21.0256,12.8206,-3.5896,26.1536,-8.2053,25.1282,-5.1282,
10.7693,-10.2561,15.385,-15.8972,-5.1282,5.6414,-21.5383,-22.051,11.7952,-1.0256,26.1541,-5.1282,24.6155,1.0256,
3.5896,-12.8206,11.7947,-14.3591,-9.2307,3.0769,-31.282,-26.6667,2.5642,0.51294,21.0256,-0.51294,14.8718,-5.1282,
2.051,-10.2566,16.9231,-14.3591,-18.9744,1.0256,-26.6667,-22.0513,13.3333,6.1541,31.282,-1.0256,24.6155,-7.1794,
0.51294,-7.6924,18.9744,-17.9487,-33.9744,0.51294,-29.231,-15.3848,22.5642,9.7434,41.0256,-0.51294,32.8206,-1.5383,
-1.282,-10,8.4617,-20.2563,-18.9744,1.282,-39.7434,-19.2307,17.6926,6.9231,39.2307,4.8718,26.4104,-3.3333,
3.0769,-12.8206,5.6409,-23.0769,-3.9744,-3.5896,-30.7693,-22.5642,21.5383,4.1023,35.8972,-3.0769,31.282,-12.3079,
9.4874,-5.3846,6.923,-25.8973,11.0256,-6.4103,-22.3077,-13.5897,26.4103,5.3846,36.6666,-14.1027,41.795,-9.4872,
14.8718,-2.0513,11.7952,-26.6665,26.0256,-6.6665,-25.6409,-14.8716,28.718,2.0513,43.0769,-18.4614,42.5642,-9.2307,
21.282,-0.76929,19.2307,-19.2307,28.9744,-2.8206,-29.4871,-16.1538,32.5642,0.76929,52.5642,-14.6152,44.8718,-11.5383,
14.359,-1.5385,11.795,-23.5897,13.9744,-10.7692,-40.0001,-15.3846,28.7179,1.5385,54.359,-18.4615,46.1539,-18.9745,
16.4102,0,17.436,-22.0513,0,-11.282,-38.4614,-11.7949,38.4614,12.3076,64.6152,-5.6409,51.7949,-6.6665,
4.8716,-14.1025,7.9487,-28.9744,-8.9744,-11.0256,-53.4614,-17.6924,27.436,10.5127,55.1279,1.7949,36.7949,-1.7949,
7.1793,-8.2052,9.2308,-25.641,-16.9232,-4.1027,-47.6923,-6.1539,34.3588,17.4359,61.5385,-0.51282,48.205,0.51282,
13.0768,0.76917,14.1024,-22.8204,-15.1283,-6.4103,-42.3077,-10.5128,41.2821,19.7435,67.9486,-3.8461,55.641,-0.76916,
8.7179,-4.6154,10.7692,-23.5897,-14.8719,-10.7692,-52.8207,-20.5128,33.8463,17.4357,59.4869,4.6154,45.6407,-7.1796,
8.718,-9.231,11.282,-25.6411,-23.0771,-15.8977,-50.2566,-16.4104,34.8718,16.4099,58.4612,9.2307,47.1794,-8.718,
7.4358,-8.9744,7.4358,-33.0769,-24.8718,-22.3076,-51.0256,-16.1538,31.0256,11.5383,63.3333,2.8206,44.8718,-2.8206,
3.8461,-10.5128,9.4872,-33.077,-32.0514,-19.7435,-51.0258,-16.6666,37.6925,16.6666,74.1027,1.2821,51.0255,-1.2821,
4.8718,-7.4358,18.2051,-23.3333,-41.282,-13.0769,-44.3589,-7.4358,48.4617,31.5383,79.2307,14.1025,58.718,-4.8718,
3.0769,-4.1025,15.8975,-20.5129,-41.5386,-17.9487,-53.3335,-11.7949,33.8462,28.2051,64.6152,22.564,43.718,-3.0769,
0.5127,-8.2051,15.8975,-22.0513,-42.0513,-24.1025,-57.9487,-21.0256,25.6411,16.9233,59.4873,14.3589,33.3335,-0.5127,
0.25647,-6.4103,20.2565,-19.2308,-44.359,-20.7692,-50.5128,-11.0255,35.6412,23.8463,71.5387,17.6925,45.3844,-0.25647,
-1.5385,-3.5897,19.9999,-15.3846,-52.3077,-24.1027,-47.6923,-5.1283,43.5897,28.7181,79.9999,20.5131,54.3588,1.5385,
-2.5641,-6.1539,16.41,-14.359,-67.3077,-20.0001,-54.8719,-8.7179,35.8973,15.8973,73.3334,8.7181,48.205,2.5641,
-2.564,-4.6152,11.2822,-13.8459,-82.3077,-5.0001,-62.564,-4.1025,23.5898,5.1284,63.0771,0,38.9746,4.1025,
-2.0515,-10.7693,11.282,-18.4617,-94.8718,3.5896,-69.7437,-10.7693,15.3845,1.0256,52.3074,-1.0256,30.7693,1.5383,
-2.3076,-18.2051,7.436,-21.2817,-109.8718,5.3848,-84.7437,-17.1792,0.38452,-0.25635,37.3074,4.3589,15.7693,3.3335,
-0.76929,-9.4875,9.4871,-10.5129,-124.8718,20.3848,-90.0002,-8.9744,-0.76929,0.76929,32.051,13.5896,11.0256,15.1282,
-10.5127,-14.1025,5.8975,-15.1279,-139.8718,22.8208,-95.1282,-12.564,2.3076,-2.3076,33.0771,12.5645,8.9746,16.667,
-14.8721,-15.3848,0,-20.5132,-154.8718,18.4614,-100.0002,-12.3081,0,8.7178,35.3843,23.5894,10.2563,17.4355,
-16.6665,-14.1025,-1.7949,-22.3076,-169.8718,15.6411,-97.1794,-12.0513,1.7949,15.1284,41.2822,33.5898,12.0513,11.5386,
-18.9741,-16.4102,-2.0513,-18.9741,-178.4614,14.8721,-99.4871,-14.8716,2.0513,14.8721,46.1538,40.5132,7.6924,18.4619,
-18.9741,-18.4614,0.51269,-15.3848,-163.4614,14.8721,-98.4614,-16.4102,-0.5127,17.436,45.1284,47.6924,2.564,31.7949,
-26.9229,-20.769,-1.7949,-26.4102,-160.2563,6.9229,-93.5898,-17.6924,1.7949,6.9229,42.3076,32.6924,6.4102,20.769,
-31.5383,-10,-5.3848,-27.9487,-172.0513,7.436,-93.5896,-8.9741,7.9487,5.3848,51.0259,17.6924,16.6665,15.1284,
-30.5129,-12.5642,-1.282,-22.3079,-173.5898,1.282,-96.1538,-11.5383,6.9231,8.9744,51.5383,24.3591,12.051,11.0256,
-23.5898,-17.436,2.0513,-17.436,-161.5386,-2.0513,-93.3335,-15.3848,2.564,12.3076,45.6406,33.8462,6.6665,18.9741,
-21.5383,-11.7947,-2.5642,-15.3845,-162.051,2.5642,-90.2563,-9.7434,7.1794,18.4617,52.8206,31.7952,15.8977,33.9741,
-23.0771,-9.231,0.5127,-15.3848,-166.6667,-0.5127,-92.3079,-9.7437,9.2305,16.4102,53.8462,27.6924,16.4102,29.2305,
-22.8203,-10,4.3589,-13.5898,-152.0513,0.76904,-99.2307,-7.9487,-0.76904,9.4873,43.8462,28.4614,3.3335,18.7178,
-21.5388,-12.8206,1.0256,-16.9231,-144.1028,3.5896,-97.949,-7.6926,-1.0256,11.7947,45.6409,27.1794,2.051,17.4358,
-15.1282,-12.051,-1.282,-17.1794,-129.9998,5.3845,-93.0767,-9.9998,1.282,22.3079,50.5129,41.282,3.3333,19.2307,
-10,-6.4102,3.3335,-14.1025,-114.9998,7.9487,-90.5127,-6.4102,-1.7949,18.2051,44.8716,44.3589,1.7949,21.2822,
-8.2053,-9.7434,6.1541,-21.0256,-99.9998,3.5896,-87.6924,-8.718,-0.51294,3.2051,41.5383,29.3589,3.0769,19.9998,
-1.5383,-9.2307,2.5642,-22.051,-84.9998,5.1282,-86.1538,-8.2048,-1.0256,1.0256,48.2053,18.4617,3.0769,16.4104,
5.6411,-6.1538,-0.5127,-18.9741,-69.9998,5.6411,-83.0769,-9.7437,-2.0513,4.1025,48.7183,22.0513,0.51269,6.1538,
15.1282,0.25659,6.9231,-15.1282,-54.9998,7.4358,-78.718,-10.5129,-3.3333,-0.25659,44.8718,13.0769,-0.25659,6.4104,
23.5898,8.7178,13.8462,-11.2822,-39.9998,13.8462,-77.436,-6.6665,-6.1538,-5.6411,41.5386,-0.5127,0.5127,5.1279,
31.7949,12.3076,21.0254,-6.6665,-24.9998,14.8716,-67.1794,-2.564,1.5386,-5.1284,45.1279,-3.5898,8.7178,-1.5386,
27.4355,8.4614,14.6152,-10,-16.667,7.9487,-67.436,-4.3589,-2.3076,-5.8975,42.8203,2.3076,3.333,-4.3589,
21.2817,4.8716,8.9741,-16.6665,-26.4102,1.7949,-71.0256,-11.0259,-8.4614,-8.4614,37.6924,6.4102,-1.7949,1.7949,
18.9746,6.667,12.3076,-17.9487,-36.4102,-3.5898,-71.7947,-13.8462,-5.6411,-5.6411,37.436,8.2051,3.5898,11.2822,
5.1282,3.5896,6.1536,-15.8977,-51.4102,-9.2307,-79.4873,-13.3333,-5.1282,-3.5896,38.4617,7.1794,5.1282,11.282,
1.5386,1.5386,6.1538,-12.3076,-66.4102,-9.7437,-75.3845,-8.7178,-1.5386,-3.0767,42.564,9.231,7.1797,12.3076,
4.1028,2.5642,9.2307,-10.7693,-81.4102,-13.8459,-77.9487,-8.2048,-6.6667,-2.5642,36.9231,10.2566,4.1028,14.8718,
-0.25635,3.8462,12.564,-10.5127,-90,-19.231,-80.2563,-8.9741,-2.8203,0.25635,39.231,10.5127,7.9487,14.1025,
-12.8206,-3.0769,10.7693,-13.8464,-101.5386,-24.6155,-80.5129,-13.3337,3.0769,5.1282,45.6409,14.8718,5.1282,13.8459,
-16.6665,-3.8462,7.9487,-13.5898,-103.8462,-24.3589,-80.7693,-13.0771,3.8462,20.1282,51.5386,29.8718,3.8462,27.436,
-20.2566,-5.3845,5.3845,-18.2053,-116.1541,-33.0771,-80.2566,-14.1028,9.9998,26.4099,55.1282,44.8718,12.051,31.0256,
-26.1538,-2.5642,2.5642,-20.5127,-126.6665,-29.7434,-76.4102,-7.1794,15.3845,24.6155,58.4617,52.8206,17.4358,36.4104,
-28.718,-3.5898,2.564,-20,-130.7693,-22.0513,-72.8206,-2.564,11.2822,22.0513,57.436,43.0771,15.3848,42.564,
-30.2563,-11.7947,6.6667,-19.9998,-134.8716,-29.7434,-72.8203,-6.6667,9.7439,17.4363,55.3845,35.8977,16.4104,33.3333,
-38.2051,-6.9229,4.3589,-20.7693,-141.7949,-39.7437,-73.5896,-4.3589,10.5127,7.9487,52.564,22.3076,19.231,21.2822,
-36.6665,-0.25635,8.9746,-17.1794,-147.9485,-38.7178,-62.3076,-1.7949,19.231,0.25635,56.1538,7.3076,25.3848,20.2563,
-27.6921,-5.6411,13.3335,-14.3589,-143.0769,-38.4614,-62.0513,-6.1538,15.3848,5.6411,57.436,9.7437,24.6152,24.1025,
-30.2563,-8.7178,9.231,-17.9487,-134.8718,-43.0769,-70.7693,-7.6924,7.6924,20,54.8716,24.7437,16.9229,22.0513,
-36.4102,-9.2307,6.1541,-24.6155,-137.9487,-46.1538,-71.7949,-6.1541,12.8206,28.718,52.3079,39.7437,12.8206,23.5896,
-34.8718,-5.6414,4.6155,-22.5642,-145.6411,-43.5898,-71.2822,-4.6155,12.8206,31.7947,51.282,46.6667,14.3586,35.8972,
-36.4102,-6.1541,6.1541,-22.5642,-157.4358,-51.7949,-71.7949,-10.7693,10.2566,24.6155,49.7434,39.4871,16.9231,35.3845,
-40.5127,-7.6924,7.6924,-24.1025,-159.4871,-56.4102,-75.3845,-8.7178,11.7949,18.9746,47.6924,37.436,14.8721,27.6924,
-40.0002,-7.1794,5.1282,-23.0771,-152.3079,-52.8206,-75.3848,-5.1282,13.8459,18.4612,45.6409,39.4871,11.7947,25.6409,
-34.6152,-4.8718,4.8718,-23.8459,-151.5383,-57.1792,-69.4871,-9.9998,12.5642,15.1282,46.4104,29.4875,15.1282,20.7693,
-35.1282,-3.3335,3.3335,-21.282,-151.5383,-60.2563,-74.1025,-7.9487,8.4614,16.6665,43.8462,27.9487,14.6152,21.2822,
-35.8975,-5.1282,5.1282,-14.8718,-149.7437,-61.5386,-75.3845,-7.6921,12.8206,18.9744,41.5383,31.282,12.3079,30.7693,
-38.4614,-5.1282,5.1282,-16.9231,-155.8975,-64.1025,-75.3845,-13.8459,9.2307,13.8459,38.4617,29.7434,7.1794,30.2566,
-40.7693,-4.8718,4.8718,-21.282,-164.3591,-59.231,-77.1797,-10.5129,5.3845,14.615,38.718,29.9998,8.9744,24.8718,
-37.9487,-8.2051,6.1538,-24.6155,-165.6411,-62.0513,-75.8975,-6.1538,11.2817,18.4614,42.0513,29.2305,10.2563,26.6665,
-33.3335,-3.5898,3.5898,-19.4873,-153.8462,-66.6667,-76.9231,-5.6411,8.7178,23.0767,38.4614,33.8462,7.1792,36.9229,
-35.8975,-3.0769,3.0769,-20.5129,-154.3589,-68.2051,-73.3333,-10.2566,10.2566,21.0256,37.949,31.7947,12.8206,32.3079,
-39.231,-5.8975,5.8975,-27.436,-158.718,-66.9231,-65.3848,-10,16.6665,16.1538,44.3589,21.7949,15.6411,24.8716,
-39.4873,-4.6155,3.5896,-26.1538,-157.436,-66.1538,-63.0769,-3.5896,15.3845,15.3845,47.6921,15.8972,14.3591,29.7434,
-38.718,-2.8203,2.8203,-26.4102,-164.3589,-69.4871,-62.8206,-4.3589,18.7178,17.6924,47.9487,15.6411,19.231,32.0513,
-35.6411,-1.7949,1.7949,-28.9744,-160.7693,-66.9231,-67.436,-7.436,16.1538,20.2563,44.3589,21.7949,14.6152,37.1792,
-30.2563,-4.1028,4.1028,-28.2051,-145.7693,-68.2051,-68.2051,-6.6667,12.8206,15.3845,43.5896,23.0769,10.7693,34.3591,
-30.2566,-6.1538,6.1538,-30.7693,-137.9487,-75.3848,-65.6411,-10.7695,12.8203,9.7437,42.564,18.4614,14.3589,25.6411,
-34.3591,-1.5386,1.5386,-31.7949,-152.3079,-74.8718,-67.1797,-9.7437,9.7437,14.3589,37.9487,21.0254,9.7437,28.2051,
-31.7949,-4.6152,4.6152,-26.6665,-147.6921,-69.2307,-66.6665,-6.1538,8.2051,19.4873,33.3335,31.2822,6.6665,30.769,
-21.5383,-5.1282,10.7693,-19.9998,-132.6921,-61.5383,-66.1538,-3.5896,3.5896,19.4871,32.3079,38.4617,9.2307,34.8718,
-18.4617,-1.5383,9.7434,-21.5383,-120.5127,-62.564,-62.0513,-6.1536,1.5383,10.2566,29.7434,23.4617,7.1794,31.282,
-16.4104,1.0256,9.2307,-18.4617,-121.0256,-64.6152,-59.4871,-9.2307,3.5896,0.51294,25.1282,9.7439,-0.51294,22.5642,
-11.7949,6.6665,8.2051,-10.2563,-109.7437,-55.8975,-63.0769,-2.564,1.5386,9.231,26.6665,24.7439,-1.5386,31.7949,
-15.3848,0.5127,2.564,-17.436,-110.2563,-56.4104,-66.6667,-6.1538,-0.5127,14.3589,24.6152,39.4873,1.5386,36.9229,
-14.1025,2.3076,2.3076,-20.7695,-103.8462,-55.1284,-65.3848,-6.9233,-2.3076,10,19.2305,27.436,2.3076,30,
-7.1792,11.7949,4.6152,-17.9487,-91.282,-51.282,-61.5383,-1.5386,-2.564,6.1538,17.436,21.5386,1.5386,21.5386,
-4.6155,7.1794,6.6667,-15.3845,-87.1794,-49.7437,-57.9487,0.51294,-1.5383,6.6667,18.4617,25.1282,-0.51294,28.718,
-5.3845,4.8718,2.8206,-13.5896,-84.3591,-44.8718,-60.7693,2.8206,-3.3333,4.3586,20.7693,24.3586,-2.8206,39.2307,
-0.5127,8.7178,3.5898,-15.8975,-82.5642,-47.1794,-54.8718,2.0513,-0.5127,-1.5386,23.5898,21.5386,0.5127,31.2822,
-0.25635,7.9487,2.3076,-18.2051,-79.7437,-50,-52.0513,3.333,-4.8721,0.25635,16.1538,27.9487,-2.3076,27.436,
-3.0769,5.6414,3.0769,-14.3586,-74.8716,-45.1279,-52.8203,5.1287,-6.1536,8.718,11.7952,36.9231,-3.0769,36.4104,
-2.3076,4.3589,8.4614,-13.5898,-72.5642,-44.3591,-50,2.3076,-2.8208,11.5386,18.7178,35.6411,-2.3076,39.2305,
-2.3076,6.4102,6.4102,-18.2051,-75.1282,-45.3848,-52.5642,2.3076,-7.436,2.8203,19.2305,23.8462,-8.9746,36.1538,
3.5896,8.718,13.8459,-14.8718,-72.3076,-47.1794,-45.6411,2.5642,-2.5642,-4.1028,16.4104,15.3845,-4.6155,31.282,
5.1282,6.1541,17.949,-10.7693,-69.2307,-49.2307,-42.564,1.0256,-1.0256,-1.5383,14.3591,18.4617,-2.5642,27.6926,
-2.5642,3.5901,10.7693,-14.8718,-82.564,-48.2051,-46.6665,2.5642,-6.1536,5.6414,12.8206,25.6414,-6.6667,32.8206,
-2.3079,7.4358,13.5896,-14.1028,-92.5642,-45.8975,-45.3848,2.3079,-5.3845,13.5896,15.1282,39.7434,-3.8464,40.2561,
-0.25635,12.5645,16.1538,-6.9229,-82.8203,-44.8716,-46.9229,0.25635,-7.9487,18.7183,12.5645,52.5645,-4.8716,38.2051,
0.51294,7.6926,15.8977,-8.2048,-82.0513,-49.2307,-43.5896,-0.51294,-3.0769,13.3333,13.8464,40.5129,-3.0769,29.2307,
-0.51294,1.0256,13.3333,-17.9485,-95.3845,-57.4358,-48.2051,0.51294,-1.0256,2.0515,13.8464,25.5129,-6.1536,17.4358,
-2.564,9.231,12.8203,-15.8975,-97.436,-58.9744,-52.8206,2.564,-1.5386,1.5386,15.8975,18.4614,-5.1284,10.769,
-5.6411,9.7437,14.3589,-16.9233,-104.6155,-62.5642,-47.6924,-1.5386,0.5127,-0.5127,16.9229,9.231,3.0767,6.6665,
-2.3079,3.3333,13.0769,-19.7434,-107.4358,-64.8718,-46.4102,-0.25659,-3.8459,2.3079,12.5642,13.5896,0.25659,11.0256,
2.8206,2.8206,16.1541,-14.6155,-101.282,-67.436,-48.9744,-2.8206,-8.9744,8.9744,5.3845,28.5896,-11.0256,17.1794,
10.2563,11.2822,24.6157,-2.0513,-93.8459,-59.9998,-44.6152,-6.1538,-12.8203,10.7695,2.0513,37.9487,-13.333,26.1538,
11.5383,14.6155,20.2566,-0.25659,-90.5129,-49.4873,-44.3591,-5.3845,-18.2053,4.3591,0.25659,29.9998,-14.6155,25.8972,
7.4358,7.9485,17.6921,-7.949,-96.1538,-55.6411,-43.3333,-1.282,-6.9231,1.282,5.8972,22.3079,-10.5129,17.1794,
-3.5898,6.1538,16.9229,-13.8462,-107.6924,-64.6155,-42.0513,0,0,0.5127,9.7437,16.4102,-3.5898,17.436,
-8.9744,5.8972,14.6155,-15.1282,-111.5386,-64.3591,-38.718,-5.3845,-0.76929,1.282,13.0769,15.6409,0.76929,20.7693,
-0.25635,4.8716,16.1538,-11.5386,-103.8462,-60.7693,-36.6665,-4.8721,0.25635,7.436,16.6665,26.9229,-3.8462,18.2051,
0.76904,4.3589,12.0513,-14.1025,-105.3848,-61.7949,-44.8718,-0.76904,-5.3848,8.4614,10.5127,35.1279,-11.0259,15.1279,
-4.3589,1.7949,13.5898,-16.6665,-108.9744,-64.3589,-41.282,1.2822,-1.2822,7.9487,11.5386,30.5127,-3.8462,18.2051,
-7.9487,1.7949,7.9487,-18.7178,-106.9229,-66.4102,-35.6406,-0.25635,0.25635,10,12.5645,22.8208,-4.8716,14.1025,
-2.564,8.2051,6.1538,-18.4614,-107.1794,-67.1794,-31.7949,-3.5898,2.564,12.3076,14.3589,23.0767,-3.5898,9.7437,
-0.76929,6.4104,5.8977,-23.3333,-109.9998,-68.4614,-35.1282,-8.4612,0.76929,9.4875,12.5642,20.7693,-1.282,12.5642,
-0.5127,4.6157,6.667,-20.5127,-102.564,-61.5383,-34.8716,0.5127,-4.1025,11.7949,10.2563,26.1538,-5.6411,20.5127,
2.8203,0.76904,8.4614,-19.231,-100.7693,-62.8206,-32.0513,-0.76904,-8.9746,11.0254,2.8203,34.1025,-14.6152,17.1797,
16.9231,8.718,16.9231,-11.7952,-85.7693,-57.436,-31.282,-1.5383,-10.7693,17.9485,1.5383,47.6921,-16.9231,26.6667,
17.6924,11.0254,19.7437,-7.9487,-73.5898,-57.6924,-31.0259,-3.8462,-14.1025,12.0513,3.8462,38.2051,-17.1797,26.4102,
16.9233,13.8462,21.0259,-10.2563,-83.0769,-58.4614,-24.1025,-1.5386,-7.6924,1.5386,8.7178,23.2051,-10.769,17.436,
11.0256,10.5129,9.4871,-19.7434,-98.0769,-59.7437,-32.5642,-2.3079,-7.4358,2.3079,4.3591,17.6921,-12.0515,16.6667,
3.0769,8.718,7.1794,-22.0515,-108.2051,-63.5898,-32.3079,-5.1282,-3.0769,9.2307,6.1541,18.9744,-7.1794,13.3333,
2.8206,11.5388,3.8464,-21.282,-93.2051,-64.3589,-28.9744,-5.8972,-2.8206,8.9744,9.4875,19.7439,-4.8718,7.949,
15.385,9.2312,1.0256,-24.1023,-78.9741,-56.9229,-26.6663,-1.5383,-1.0256,8.718,11.2825,24.1028,-2.5637,15.385,
17.6924,3.3335,4.3589,-30.5127,-86.4102,-60.2563,-27.436,-5.8975,-3.3335,5.3848,8.9746,23.3335,-5.8975,15.6411,
8.2051,9.7437,3.5898,-26.6665,-82.564,-61.5383,-30.769,-3.5898,-6.1538,4.6157,11.2822,23.5898,-9.2305,11.7949,
7.1794,9.2307,1.0256,-27.6921,-77.4358,-58.9741,-27.6921,-2.5642,1.0256,-1.0256,15.3845,12.8206,-7.1794,5.1282,
16.4099,8.718,5.1282,-25.6414,-68.718,-51.7949,-23.0769,-2.5642,2.5642,-3.5901,14.8718,3.0769,-6.1541,5.1282,
25.6414,19.4871,11.7952,-14.8718,-53.718,-42.564,-19.9998,1.5383,-3.5896,-1.5383,8.718,6.1541,-5.1282,7.1794,
40.6414,24.6152,21.5386,-6.1538,-38.718,-33.8462,-13.3335,1.5386,-3.5898,-1.5386,5.1284,14.8716,-3.0771,9.7437,
55.6414,25.8975,21.2822,-0.25635,-23.718,-23.333,-13.0767,0.25635,-9.4873,-6.4102,-1.7949,14.6152,-10.5127,13.0771,
63.3333,32.5642,21.7947,3.8459,-8.718,-16.1541,-10.5129,-0.76929,-14.1028,-14.6155,-6.4104,0.76929,-16.6667,6.9231,
74.3591,43.5896,31.282,9.7434,6.282,-4.6155,-2.5642,6.6667,-12.3079,-11.282,-3.0769,-0.51294,-13.3333,0.51294,
74.6155,43.8459,26.9231,4.8718,21.282,-2.8206,-4.3591,8.9744,-17.1794,-8.4617,-6.9231,2.8206,-17.6926,-5.8977,
74.3591,39.9998,23.5896,3.5896,36.282,-9.2307,-3.0769,3.5896,-17.4358,-11.7947,-10.7693,3.0769,-21.0256,-4.1028,
73.0769,37.1794,22.8206,7.4358,51.282,-10.5129,-8.9744,0.76929,-24.8718,-17.6921,-19.2307,1.282,-25.8972,-0.76929,
76.4102,37.9487,26.1538,9.7437,66.282,-8.2051,-5.6411,3.0771,-22.564,-15.8975,-18.9741,-0.5127,-21.5386,0.51269,
75.6409,36.1541,23.3333,3.3333,73.5896,-9.9998,-3.3333,2.8206,-20.2566,-14.6155,-15.6409,0.25659,-21.7947,-0.25659,
66.1538,35.3843,16.9229,0,61.0254,-12.3076,-13.3335,2.564,-26.667,-17.9487,-19.4873,0.5127,-25.6411,0,
64.8716,34.1025,20.769,2.8203,46.0254,-14.6157,-10,4.8716,-21.7949,-16.667,-17.6924,-2.3076,-17.6924,2.3076,
65.6409,35.3845,18.9744,0.51294,38.4617,-12.8206,-7.1794,3.5896,-21.5383,-15.3845,-16.9231,-0.51294,-18.9744,4.6155,
61.2817,37.1792,17.6924,-1.7949,30,-9.4873,-10,1.7949,-23.3335,-17.6924,-16.667,1.7949,-21.7949,7.4355,
62.0513,38.4614,22.0513,0.51269,22.564,-13.3335,-12.3076,5.1284,-20,-14.8716,-15.3848,-0.5127,-15.8975,8.7178,
66.1538,39.4873,21.5386,3.5898,22.0513,-18.4614,-10.7695,4.1025,-17.9487,-10.2563,-12.3076,-3.5898,-14.3589,3.5898,
65.1282,39.4871,25.1282,4.6155,20.0002,-19.9998,-0.51294,1.0256,-11.282,-11.7947,-5.1282,-3.0769,-12.8206,0.51294,
58.718,37.6921,21.282,2.3079,14.1023,-18.718,-2.3079,0.76929,-13.5896,-9.4871,-1.7947,-0.76929,-13.0769,8.9744,
56.6667,32.051,14.6155,-2.8206,4.3591,-22.3079,-8.9744,2.3079,-16.1541,-2.3079,-2.8206,4.8718,-12.0515,6.9231,
58.2051,30,19.7437,-3.3335,-2.8208,-20.2563,-4.3589,7.9487,-7.436,1.7949,-1.7949,15.1279,-5.8975,5.8975,
57.6926,36.1541,21.282,-1.7947,-2.8206,-13.0769,-3.8459,11.0256,-6.4099,-0.76929,0.76929,12.0515,-5.3845,16.6667,
65.3848,40.2563,21.2822,-2.8203,1.7949,-14.1025,-3.8462,7.9487,-4.8716,-7.4355,4.3594,-1.7949,-4.3589,11.0259,
77.4355,43.0767,22.0513,1.5386,16.7949,-9.7437,-5.1284,10.769,-8.7183,-8.2051,-1.5386,-2.5645,-7.1797,4.6152,
85.8972,44.8718,21.282,1.7947,31.7949,-1.7947,-3.3333,11.0256,-20.2566,-14.1028,-14.1028,-5.8972,-17.6921,6.9231,
94.8718,47.6921,22.051,-3.0769,46.7949,1.0256,1.5383,2.051,-23.5901,-26.1541,-17.4363,-13.3333,-24.1028,-1.0256,
101.0256,54.8718,19.9998,-1.0256,61.7949,6.6667,1.0256,6.1536,-23.0769,-24.6155,-14.8718,-10.2566,-21.0256,-7.1794,
99.7434,49.4871,17.1794,-0.76929,76.7949,0.76929,1.282,4.3591,-27.4358,-28.9744,-23.3333,-22.8206,-21.282,-10.0002,
105.3848,48.4614,19.2305,0.25635,91.7949,-0.25635,6.4102,1.2817,-31.0259,-39.7437,-27.9487,-36.6665,-22.8208,-13.0771,
107.1797,52.8208,19.4873,-2.0513,106.7949,3.0771,6.1538,2.0513,-29.7437,-45.6411,-27.1792,-42.0513,-22.564,-23.0767,
105.1279,54.3589,26.6665,0,119.4873,0,10.2563,2.0513,-24.6152,-38.4614,-23.0771,-38.4614,-20,-22.0513,
104.3589,58.2051,30,3.8462,131.5386,-3.8462,15.6411,5.3848,-24.3589,-24.8716,-19.7437,-25.3843,-18.2051,-13.5898,
108.9744,61.7952,31.5383,2.3079,143.3333,-2.3079,23.8464,10.0002,-11.5383,-16.1536,-12.051,-14.1023,-7.9485,-12.051,
112.051,62.8206,30.5129,2.8206,135.1282,-2.8206,25.3845,11.5383,-7.4358,-15.1282,-4.8718,-12.5642,-6.4104,-11.5383,
107.436,59.7437,30,4.3589,127.9487,-11.5386,21.7949,8.4614,-14.6152,-17.6924,-4.3589,-16.1538,-8.9741,-10,
103.3333,55.6409,30.5129,0.76929,128.4617,-19.2307,24.8718,4.8718,-9.9998,-18.718,-2.3079,-21.7947,-0.76929,-11.5383,
98.2051,52.564,22.3076,-4.3589,121.7949,-22.8203,25.3848,8.4614,-8.9741,-21.7949,-0.76904,-26.9229,0.76904,-15.1284,
88.2051,46.6665,17.9487,-10.2563,106.7949,-32.3076,25.1284,7.1797,-9.7437,-26.1538,0,-32.8206,0,-18.4614,
83.8462,49.4873,22.8203,-8.9741,91.7949,-32.0513,22.8203,5.3848,-8.9741,-17.1797,-1.2822,-20.2563,1.2822,-5.3848,
80.7695,50.5127,16.6665,-12.564,76.7949,-29.4873,13.0771,1.7949,-16.1538,-16.6665,-9.4873,-5.2563,-6.9229,3.3335,
80.5129,48.2053,17.9485,-22.0515,61.7949,-32.3079,14.3591,3.0769,-12.8206,-17.9485,-7.6921,1.5383,-5.1282,-1.5383,
72.564,46.9229,19.2305,-27.9487,46.7949,-36.6667,11.0254,6.9229,-7.436,-14.6157,-2.8208,-5.8975,-0.25635,0.25635,
63.333,38.2051,13.5898,-33.0771,31.7949,-43.3335,5.8975,0.25635,-3.3335,-18.7183,-0.76953,-12.564,-0.25635,2.8203,
67.6924,36.4106,17.436,-34.8716,16.7949,-36.4102,7.6924,0,-1.0254,-17.9487,2.0513,-6.6665,0,4.6157,
67.436,42.8208,21.7949,-28.9741,1.7949,-27.9487,8.9746,8.4619,-5.3843,-17.1792,0.25635,-9.4868,-0.25635,5.3848,
60.7693,42.3079,22.8206,-22.3074,-13.2051,-34.1025,13.0769,9.4875,-3.8459,-19.7434,-1.282,-18.718,2.3079,1.282,
57.6921,41.282,20.7693,-18.2053,-28.2051,-32.0513,7.4358,9.4871,-3.8459,-15.1282,-0.76929,-7.9485,0.76929,5.3845,
52.564,41.7949,19.231,-16.1538,-43.2051,-27.9487,0.76904,9.4873,-5.8975,-15.6411,-0.76904,-4.8716,0.76904,14.1025,
50.2566,41.5383,18.4617,-13.3333,-58.2051,-32.3076,2.5642,9.2307,-4.6155,-20.5129,-2.5642,-14.8718,3.0769,17.949,
47.1794,38.9744,16.4104,-14.8718,-73.2051,-34.8718,1.5383,9.2307,-3.5896,-16.9231,-1.5383,-10.7693,3.5896,17.9485,
43.8462,36.667,14.1025,-17.1792,-88.2051,-37.6921,0.25635,8.4614,-2.3076,-13.5898,-0.25635,-6.9229,3.3335,17.6924,
41.2822,34.1025,12.0513,-19.231,-99.7437,-40.2563,-0.76904,7.9487,-1.2822,-10,0.76904,-2.8203,3.8462,17.6924,
36.4104,30.2566,8.2053,-23.0769,-109.7434,-45.1282,-3.5896,5.6409,-2.051,-8.718,0.51294,-0.51294,2.5642,16.4104,
31.0256,25.3845,3.8459,-26.9231,-120.7693,-50,-6.9231,3.3333,-3.3333,-7.4358,-0.76929,1.282,0.76929,14.1028,
27.1794,22.5642,0.51294,-29.7434,-130.769,-53.8462,-9.2307,2.0515,-2.5642,-4.6155,0.51294,5.1282,-0.51294,13.3333,
32.3076,23.5898,4.6152,-28.7178,-128.2051,-54.8718,-2.0513,0,-1.0254,-2.564,2.0513,6.667,0,7.6924,
39.4873,25.6411,10.2563,-25.6411,-118.9744,-52.3076,0.5127,2.564,-0.5127,-8.7178,-1.5386,5.1279,-3.0771,13.8462,
39.9998,27.1794,10.7693,-19.4871,-118.4617,-50.2563,-1.0256,2.5642,0.51294,-6.6667,-0.51294,4.1023,-1.5383,27.6921,
31.5383,22.8206,6.9231,-23.3333,-133.4617,-57.1794,-4.8718,-1.282,-1.282,3.3333,1.282,11.0256,-2.3079,25.3845,
27.1797,19.4873,0,-27.6919,-143.5896,-57.4358,-6.6665,0,-1.0254,16.4106,3.0771,26.0256,-6.6665,20.5132,
23.8462,15.1284,-6.9229,-35.6411,-146.9231,-59.7437,-4.3589,-7.9487,6.4102,18.2051,4.3589,25.8975,-5.8975,16.1538,
21.0256,14.8718,-10.7693,-37.9487,-144.6155,-58.9744,-7.6921,-5.6409,3.5896,19.4871,4.1023,23.5896,-3.5896,19.4871,
24.3591,15.1282,-9.4871,-31.0256,-140.7693,-57.6924,-13.0769,3.8459,-3.3333,17.1794,3.3333,28.4617,-4.3591,23.3333,
31.7949,12.3076,0.5127,-26.667,-134.3591,-62.0513,-7.1797,-0.5127,-3.5898,8.7178,2.0513,25.1279,-7.6924,20,
34.3589,16.9229,3.5898,-24.6157,-128.2053,-58.9744,-3.5898,-2.0513,-4.6157,10.769,2.0513,29.7437,-9.231,22.0513,
29.2307,17.9485,-0.51294,-26.6667,-139.4873,-61.0256,-5.1282,-4.6155,0.51294,8.718,5.1282,24.6155,-4.1028,19.4871,
27.949,14.1028,-3.3333,-29.4871,-145.8972,-66.4102,-4.3586,-8.9744,3.3333,1.282,8.9744,14.1028,-1.282,19.7439,
27.6921,10.2566,-5.1282,-41.0256,-148.2051,-69.7437,-4.1028,-7.6921,2.5642,6.6667,11.7947,15.8972,-2.5642,19.4871,
24.6152,4.6152,-5.1284,-54.8718,-156.9231,-72.3076,-7.6924,-10.2563,3.5898,9.7437,7.1797,12.3076,-3.5898,7.6924,
26.1538,9.7437,-3.0767,-48.7178,-151.282,-63.0769,-9.7437,-5.6411,4.1025,7.1797,2.564,12.3076,-2.564,13.8462,
29.4873,9.4873,-0.76904,-44.3589,-145.8975,-62.8206,-4.8716,-3.8462,3.3335,4.8716,0.76904,17.1797,-2.3076,21.7949,
31.5386,6.4102,1.7949,-48.9744,-143.8462,-67.436,-4.3589,-7.9487,-0.25635,4.8716,0.25635,20.769,-5.3848,19.2305,
31.7949,9.231,3.5898,-44.1025,-136.9231,-63.0769,-5.1284,-7.1797,-2.564,3.5898,2.564,14.3589,-4.6152,20.5127,
31.282,9.7439,6.1541,-36.9231,-140,-63.5896,-1.0256,-3.5896,-0.51294,0.51294,4.6155,6.6667,-1.0256,21.0256,
34.1023,14.6155,6.4104,-36.1541,-140.7693,-63.3335,-3.8464,-1.282,-2.3079,1.282,4.8718,13.5896,-3.8464,21.282,
38.9744,16.4104,9.7439,-38.9744,-130.2563,-57.4358,-3.0769,-1.5383,-1.5383,1.5383,9.2307,16.9231,-2.5642,23.5896,
36.1541,11.0256,6.4104,-38.2051,-124.3589,-57.1794,-1.7947,-3.8459,-1.282,1.282,8.4617,16.1541,-4.8718,26.4104,
32.0513,12.564,0.76904,-30.5127,-125.3845,-51.5383,-0.76904,-1.2822,-1.2822,6.9229,5.3848,21.7949,-4.8716,27.9487,
30.2568,12.3081,2.0513,-32.8203,-130.769,-55.8972,-2.0513,-3.5894,-2.564,3.0771,2.0513,14.3594,-4.1025,20,
32.3076,13.8462,5.1279,-28.2051,-126.1541,-57.436,-5.1284,-4.1025,-4.6157,4.1025,4.1025,15.8975,-5.6411,21.5381,
29.4873,12.0513,3.8462,-24.3589,-128.9744,-54.1025,-4.8716,-3.8462,-3.8462,4.3589,5.8975,15.6411,-5.8975,20.2563,
32.0515,13.0769,4.3591,-27.9485,-132.0513,-51.5383,-6.4104,-2.8206,-0.76929,0.76929,7.4358,8.9744,-2.8206,19.2307,
37.6921,17.6921,3.8459,-25.8972,-124.3589,-50.5127,-10.5129,-3.3333,-2.8206,2.3079,6.4104,12.0515,-2.3079,24.8718,
34.8721,15.8975,4.103,-19.4868,-124.1023,-50.2561,-10.2563,-5.1279,-2.0513,2.0513,5.6411,21.5386,-4.1025,23.5898,
26.9231,14.1023,0.76929,-19.2307,-129.4873,-42.3079,-12.5642,-0.76929,-2.3079,1.7947,4.3591,22.8206,-5.8977,21.282,
25.6411,13.8462,0,-25.1284,-129.7437,-37.9487,-11.2822,3.0767,0,0,3.5898,16.4102,-5.6411,25.6411,
26.6667,9.7439,2.0515,-25.6409,-124.6152,-42.051,-10.7688,-2.051,1.0256,-1.0256,5.1287,18.4617,-5.1282,30.7693,
26.6665,12.3076,0.5127,-17.9487,-122.0513,-41.0256,-12.3076,-0.5127,-0.5127,6.1538,10.2563,26.6665,-1.0254,33.3335,
24.6155,9.2307,-2.0515,-23.0769,-135.3848,-46.6667,-12.8206,-4.1028,1.0256,8.718,8.2048,22.051,-1.0256,22.5637,
27.1794,10.7693,0.51294,-26.6667,-134.8718,-46.6667,-14.8718,-0.51294,-2.5642,13.3333,1.5383,26.6667,-7.6921,19.9998,
25.3845,11.5383,-0.76929,-23.3333,-126.9231,-46.9231,-14.6155,2.8206,-3.3333,12.5642,0.76929,31.0256,-9.4871,24.3591,
23.5894,5.1279,-2.0513,-24.1025,-129.231,-49.7437,-10.7695,-4.6157,2.564,8.7178,2.0513,27.1792,-3.0771,22.0513,
25.8975,10.5127,-2.3076,-26.9233,-127.9487,-45.3848,-12.0513,-4.8721,4.3589,13.5898,1.7949,26.9229,-1.7949,24.3589,
27.6921,9.2307,-3.0769,-29.7434,-127.6924,-52.3076,-14.3591,-4.6155,5.6409,15.3845,3.0769,25.1282,-6.1541,22.051,
31.0256,3.8464,-3.8459,-26.4104,-128.4614,-58.718,-16.1536,-2.8206,2.8206,15.1282,4.8718,23.8464,-6.9231,18.718,
33.8459,7.6921,-1.5383,-20.5129,-126.6667,-49.2307,-13.8464,-1.5383,1.5383,15.3845,4.1023,19.4871,-2.0515,23.0769,
34.6152,11.5386,2.3076,-18.7178,-127.4358,-43.8462,-10.5127,-4.3589,-0.76904,7.436,0.76904,14.6152,-2.8203,24.8716,
36.9231,16.9231,2.5642,-15.3845,-129.7437,-46.6667,-13.3333,1.0256,-3.0769,3.0769,-1.0256,20.5129,-4.6155,30.2566,
33.8459,12.3079,1.0256,-18.9744,-133.3335,-57.436,-14.8718,-1.0256,2.5642,1.5383,-2.0515,15.3845,-1.0256,18.9744,
31.7952,9.2307,1.0256,-20.5129,-124.6152,-57.4358,-14.3591,-6.1536,4.1028,2.0515,-1.0256,6.6667,-2.051,6.6667,
35.3848,12.3076,0,-20,-122.0513,-53.3333,-15.3848,-3.5898,0,2.564,1.5386,7.1797,-5.1279,13.3335,
36.1538,13.5898,0.76904,-23.3335,-131.0256,-55.6411,-14.1025,-0.25635,-0.76953,1.7949,0.25635,8.9741,-1.7949,21.7949,
35.1279,14.6152,-0.25635,-18.7183,-123.3335,-51.5386,-14.6157,4.3589,-2.3076,3.8462,0.25635,13.5898,-2.8208,24.8716,
37.1797,12.0513,-0.25635,-15.1279,-116.1536,-54.6152,-13.5894,0.25635,-3.333,1.2822,0.76953,13.5898,-6.9229,18.2051,
44.3589,18.7183,7.9487,-13.5894,-112.564,-54.6152,-11.0254,-0.25635,-0.25635,4.8721,0.25635,14.6157,-2.8203,21.2822,
40.2563,20.2563,3.8462,-14.6152,-107.9487,-55.1282,-13.5898,0.25635,-4.3589,4.3589,-3.8462,13.0771,-0.25635,21.7949,
35.3848,13.8462,0,-15.3848,-103.0769,-57.9487,-8.7178,-5.1279,-0.5127,0,0,9.7437,2.564,16.4102,
32.0515,12.5642,-0.76929,-18.2048,-107.4358,-57.6921,-9.4871,-3.3333,-2.8206,0.76929,0.76929,9.4871,0.76929,14.1028,
30.0002,12.5642,0.76929,-20.2566,-117.1794,-59.7437,-12.0515,-1.282,-2.8206,1.7947,-0.25659,8.4617,0.25659,9.4871,
30.2563,9.7437,0,-21.5386,-113.8464,-64.1028,-12.3076,-7.6924,1.0254,2.564,0,8.2051,0,11.7949,
32.0513,12.564,-2.3076,-16.1538,-104.3591,-60.2566,-11.5386,-5.3848,-0.25635,6.4102,0.25635,11.0254,0.25635,23.333,
32.0515,15.1282,1.282,-15.6409,-105.3845,-59.7434,-10.5125,-1.7947,-1.7947,0.76929,1.282,5.3845,-0.76929,21.282,
31.2817,14.8716,4.1025,-18.9746,-102.5642,-59.4873,-12.8208,0,-6.1538,0,1.0254,7.6924,-6.667,17.4355,
29.4871,12.0515,2.3079,-18.2048,-102.3076,-58.7178,-12.5642,0.25659,-4.8718,6.9231,-0.25659,17.1794,-6.4104,23.8464,
28.9744,10.5129,1.7947,-15.1282,-108.4614,-57.6924,-10.5129,-2.3079,-0.76929,8.9744,0.76929,22.8206,-3.3333,28.4617,
28.9746,10,1.2822,-18.2051,-108.4614,-56.1538,-12.0513,-1.2822,-4.3589,5.8975,1.7949,19.7437,-5.3848,23.3335,
28.2053,8.2053,5.1287,-21.0256,-108.2048,-55.8972,-11.7947,-1.0256,-5.1282,6.1541,1.0256,18.4617,-4.615,21.5388,
30.2566,12.8206,6.1541,-8.718,-102.0513,-52.8203,-17.9485,3.0769,-6.1536,9.2307,-3.0769,31.7952,-6.6667,34.3591,
36.667,16.667,7.9487,-3.8462,-93.0767,-52.564,-17.6919,3.8462,-6.9229,8.9746,-6.9229,38.2051,-8.4614,39.231,
41.0259,15.8975,14.8721,-6.1538,-92.3076,-50.2563,-8.2051,3.5898,-3.5898,12.8208,-6.6665,40,-6.1538,37.436,
32.8203,14.8716,8.7178,-3.5898,-97.9487,-45.6411,-15.8975,3.5898,-9.231,18.4614,-9.231,48.2051,-12.8208,41.0254,
32.3079,18.4617,9.7434,-4.1028,-94.3589,-43.5898,-16.4104,3.5896,-3.5896,22.5642,-3.5896,53.8459,-9.7434,48.718,
31.7947,14.3586,7.1794,-13.8464,-91.2822,-49.7437,-16.4104,3.0769,-4.1028,14.3586,-3.0769,41.0256,-9.2307,46.6667,
28.7183,11.7949,2.0513,-11.2817,-98.4614,-48.2048,-17.4355,3.5898,-4.1025,8.7183,-2.0513,29.231,-8.7178,42.0513,
27.6924,11.7949,2.5645,-10.2563,-109.2305,-45.1279,-16.9229,2.0513,-2.564,10.2568,-2.0513,28.2056,-5.1279,37.436,
27.949,16.6667,4.8718,-12.051,-104.8718,-41.7949,-16.1541,5.8977,-7.4358,15.6409,-4.8718,35.1282,-5.3845,41.282,
27.9487,13.5898,7.9487,-8.9741,-103.8462,-46.4102,-13.5898,3.3335,-6.9229,13.0771,-3.3335,33.0771,-8.4614,44.3589,
31.0256,13.5896,11.0256,-3.3333,-102.8206,-47.436,-15.6409,3.3333,-6.4104,12.051,-3.3333,35.1282,-10.5129,48.9744,
32.3076,19.4873,10.2563,-6.6665,-104.6152,-43.0769,-16.4102,6.1538,-6.1538,14.8721,-9.7437,43.5898,-9.2305,48.2051,
35.8977,19.4871,10.7693,-6.6667,-108.2051,-43.5896,-12.3074,5.1282,-5.1282,16.9231,-9.2307,44.6155,-8.2048,45.6414,
32.5642,17.6921,4.8718,-4.8718,-104.3591,-44.3591,-18.2053,4.8718,-13.0769,15.6409,-6.4104,38.718,-11.0256,48.4617,
32.3079,16.4104,7.1794,-7.1794,-97.9485,-44.1025,-14.8718,4.6155,-7.6921,13.8464,-4.6155,33.8464,-8.2048,45.1282,
38.4617,15.3845,11.282,-7.1794,-90.769,-44.1025,-10.2561,2.5642,-2.5642,14.8718,-8.2048,35.3845,-11.282,41.0256,
41.7949,19.7437,11.0259,-3.3335,-86.9231,-42.3076,-10.5127,3.3335,-6.9229,15.1284,-8.9741,39.231,-13.5898,43.8462,
37.9487,20,14.8721,-3.5898,-89.2307,-43.0769,-8.2051,3.5898,-5.1279,11.7949,-6.6665,34.8721,-8.2051,45.1284,
33.0769,18.2053,11.5388,-4.8718,-87.4358,-42.8203,-13.0769,4.8718,-7.4358,14.1028,-10.5125,36.6667,-11.5383,46.9231,
32.051,13.0769,7.9485,-2.8206,-87.949,-43.8464,-13.5901,2.8206,-8.9744,18.2048,-12.5642,43.8459,-16.1541,46.4099,
32.3076,12.8203,9.7432,-2.0513,-88.2053,-44.6157,-6.667,2.0513,-9.7437,15.8975,-12.8208,42.564,-13.3335,41.5381,
32.564,19.7437,11.5386,-4.3589,-82.3076,-41.7949,-4.8716,4.3589,-9.4873,13.5898,-13.0767,34.6152,-8.9741,37.6924,
35.8975,22.564,15.3848,-4.1025,-79.4873,-41.5386,-4.1025,4.1025,-5.6411,13.8462,-8.2051,30.2563,-6.6665,38.9741,
33.333,17.9487,9.7437,-6.1538,-88.718,-43.5898,-8.2051,6.1538,-9.231,13.333,-8.2051,30.2563,-9.231,40.5127,
32.0513,15.6406,7.9487,-15.1284,-93.0771,-43.8464,-5.8975,5.8975,-7.436,14.1025,-5.8975,33.5894,-6.4106,40.2563,
33.3335,18.9746,10.7695,-22.0513,-85.6409,-42.564,-4.1025,3.5898,-3.5898,17.9487,-3.5898,37.436,-7.6924,40,
28.2051,16.4102,6.6665,-26.1538,-85.1282,-44.6155,-7.1797,5.6411,-5.6411,15.8975,-7.6924,29.7437,-9.231,35.3848,
23.5898,10.769,6.1538,-31.7949,-89.2307,-47.6924,-8.2051,4.1025,-5.1284,8.7178,-10.2563,17.436,-4.1025,30.769,
29.4875,16.1541,9.4875,-26.4099,-85.3845,-41.7947,-10.5125,5.3845,-6.4099,13.0769,-10.5125,23.3333,-5.3845,38.718,
35.1284,19.231,13.5898,-18.2051,-84.3589,-43.3333,-6.4102,5.8975,-5.8975,14.1025,-6.9229,23.8462,-5.8975,40.2563,
34.6155,15.6409,13.5896,-21.282,-82.3079,-54.1025,-2.8206,2.8206,-8.4617,4.8718,-8.4617,15.1282,-6.9231,31.5383,
34.6155,21.282,12.5642,-21.7952,-74.1025,-50.5129,-4.8718,4.8718,-11.0256,4.8718,-12.0515,19.7434,-8.4617,36.6667,
37.1794,19.2307,14.6155,-22.8206,-74.6155,-46.9231,-2.3079,2.3079,-6.4104,9.4871,-10.0002,21.7947,-7.949,37.1794,
39.4871,15.8972,18.4617,-21.0256,-70.7693,-43.5898,-2.0515,2.0515,-10.7693,13.3333,-8.718,29.7434,-10.7693,35.3845,
36.4104,19.4871,22.0515,-18.4617,-70.2563,-42.5642,-4.1028,4.1028,-13.3333,11.282,-13.3333,32.8206,-12.8206,35.8972,
37.6921,20.7693,21.7947,-16.6667,-75.6411,-46.4104,-5.3845,5.3845,-5.3845,11.0256,-12.5642,23.8459,-8.4617,35.6409,
42.3074,22.3074,18.2048,-13.0769,-69.4873,-37.6924,-6.9231,6.4104,-6.4104,17.6921,-10.0002,26.4104,-8.9744,44.3591,
41.7949,20.7695,21.2822,-10.5127,-70.5127,-28.9741,-3.8462,3.8462,-8.9741,20.2568,-9.4868,35.1284,-9.4868,48.4619,
38.9744,21.5383,23.5896,-4.6155,-83.0769,-32.3079,-6.6667,4.6155,-5.6409,19.9998,-7.6921,39.4871,-7.6921,43.5896,
35.3848,21.0259,15.8975,-4.1025,-83.5896,-42.0513,-10.2563,4.1025,-4.1025,16.4102,-7.1792,27.6924,-5.6411,35.8975,
33.0769,18.2053,14.6155,-9.9998,-68.5896,-45.3845,-6.4099,2.8206,-5.8972,7.4363,-7.4358,13.0769,-2.8206,34.1028,
28.9746,18.2051,15.1284,-12.0513,-53.5896,-42.3076,-7.9487,2.8203,-5.3848,6.9233,-2.8203,12.564,-6.4102,32.0513,
22.8206,11.5383,12.051,-13.5896,-57.1797,-50,-9.4871,-1.282,-1.282,7.4358,1.282,9.4871,-7.949,19.7434,
22.8206,11.5383,12.0515,-12.5642,-57.1794,-49.4871,-5.8972,0.25659,-2.8206,5.8972,-0.25659,8.4617,-4.8718,22.3079,
20.7693,11.5383,14.1028,-9.4871,-54.6155,-44.8718,-5.3845,2.3079,-3.8459,7.4358,-2.3079,12.5642,-4.8718,27.4358,
15.6411,6.9233,16.6665,-7.436,-56.6667,-51.0256,-7.9487,-0.25635,0.25635,10,-2.3076,14.1025,-5.8975,23.3335,
18.9741,12.3076,16.4102,-3.5898,-51.7952,-47.6924,-7.1797,2.0513,-2.0513,8.2051,-3.0771,13.333,-3.5898,26.1538,
18.4617,13.3333,15.8977,-8.2048,-59.4871,-44.6152,-1.5383,1.0256,-1.5383,1.5383,-3.0769,10.2566,-1.0256,27.1794,
8.9746,10,13.0771,-12.0513,-67.4358,-48.9741,-3.333,-1.7949,1.7949,1.7949,-3.333,10,-3.8462,25.8975,
8.9741,11.0254,12.0513,-6.9233,-57.1797,-50.5129,-4.8721,-2.3076,2.3076,2.8203,-2.8208,10,-4.3589,26.9229,
15.3848,10.2563,20.5127,-5.6411,-50.2563,-50.2563,0.5127,-3.0771,-0.5127,1.5386,-2.0513,9.231,-3.0771,20,
13.8459,13.3333,21.5383,-7.6921,-50.7693,-45.6411,-1.0256,1.0256,-4.1028,8.2048,-4.1028,15.8972,-3.5896,18.9744,
7.6921,12.8206,13.8464,-11.282,-55.3845,-48.7178,-4.1023,-0.51294,0.51294,7.6921,-2.5642,10.2566,-2.051,23.5896,
6.667,7.6924,8.7183,-13.8462,-57.9485,-53.3333,-7.6919,-5.6406,2.0513,2.5645,-2.0513,2.5645,-3.0767,23.5898,
11.0256,12.0515,13.5901,-8.9744,-55.1282,-48.4614,-6.9231,-1.282,1.282,8.4617,-1.7947,10.0002,-3.3333,23.8464,
11.7947,8.718,16.4104,-11.282,-56.4104,-48.2051,-4.1028,-0.51294,0.51294,4.1023,-3.5896,10.7693,-5.6409,22.051,
11.5386,9.4873,13.0771,-11.0254,-52.564,-42.8203,-5.3843,2.3076,-2.3076,5.3848,-2.3076,13.5898,-4.8716,27.9487,
6.9229,9.4873,10,-11.0254,-58.718,-43.8462,-8.4614,0.76904,-0.76904,11.5386,-2.3076,12.564,-3.3335,22.3076,
2.0513,6.667,10.2563,-14.3589,-69.2307,-48.2051,-11.7949,-0.5127,0.51269,9.7437,-3.5898,10.2563,-6.1538,20.5127,
0.76929,10.0002,6.9231,-14.1023,-68.9741,-46.4102,-11.5383,4.3591,-1.7947,3.8464,-0.76929,11.0256,-6.4099,26.4104,
6.9229,11.0254,6.9229,-13.5898,-67.436,-47.9487,-6.9233,0.25635,-0.25635,1.7949,-0.76953,2.8203,-1.7949,19.2305,
11.7947,11.282,11.282,-11.282,-64.1025,-44.1025,-9.7439,1.0256,-1.0256,8.2048,-2.5642,6.1536,-1.5383,21.5383,
5.8975,11.0254,12.564,-14.1025,-66.4104,-45.8975,-10.5132,1.7949,-1.7949,5.3843,-4.8721,11.0254,-1.7949,23.333,
4.1025,8.7178,11.2822,-15.8975,-69.2307,-51.7949,-8.2051,-2.564,0.5127,1.5386,-10.2563,8.7178,-0.5127,17.436,
5.3848,3.3335,7.436,-15.1279,-67.4358,-48.4614,-12.564,-0.25635,0.25635,6.4102,-8.9741,10,-0.76904,16.667,
1.5383,-0.51294,7.1794,-20.5129,-71.7949,-49.231,-12.8206,-0.51294,1.0256,4.6155,-4.6155,9.2307,0.51294,13.8459,
5.3845,8.9744,9.9998,-14.6155,-64.3589,-45.8975,-10.5129,-0.76929,-2.3079,4.8718,-7.9485,14.6155,0.76929,17.1794,
13.5898,12.0513,14.6152,-3.3335,-54.1025,-39.7437,-11.0254,0.76904,-5.8975,7.9487,-10,24.3589,-0.76904,24.3589,
14.1028,6.9231,17.1794,-5.8972,-51.0256,-40.2563,-9.9998,3.8459,-3.8459,7.949,-9.4871,23.8459,-4.8718,24.3591,
7.9487,10,10,-12.0513,-51.5386,-41.7949,-10.5127,5.8975,-4.3589,4.3589,-12.5645,12.564,-6.4102,22.3076,
7.4358,12.0515,10.0002,-11.0256,-58.2051,-44.3589,-7.4358,-1.282,1.7947,0.25659,-7.4358,5.3845,-0.25659,25.3845,
5.8975,5.3843,8.4614,-15.1284,-62.3079,-47.9487,-11.0259,-8.4614,2.8203,2.3076,-2.3076,10.5127,-3.3335,20.2563,
3.0769,2.0515,6.1541,-21.5383,-63.5896,-44.1025,-13.8459,-2.5642,1.5383,10.2566,-1.5383,11.7952,-3.5896,10.2566,
1.0256,3.0769,7.6926,-19.9998,-65.6409,-44.6152,-14.3591,2.0515,-1.0256,7.6926,-6.6667,8.2053,-2.5642,12.3079,
4.3591,6.9231,10.0002,-10.5129,-59.7437,-43.3333,-17.1794,4.8718,-5.3845,5.8972,-9.9998,19.2307,-4.3591,24.8718,
7.6924,2.564,11.2822,-9.7437,-60,-42.5642,-15.3848,2.564,-2.564,7.1797,-8.2051,20.5127,-4.6152,23.5898,
7.6921,6.1536,7.6921,-12.8206,-60.5129,-37.436,-13.8464,1.5383,-2.0515,7.1794,-5.1282,12.3079,-1.5383,21.0256,
2.3076,11.5386,2.3076,-15.1284,-57.6924,-38.2051,-14.1025,1.2822,-4.3589,1.2822,-3.8462,5.3848,-1.2822,24.3589,
7.1794,7.1794,8.718,-13.3333,-48.2051,-42.564,-10.7693,-0.51294,1.0256,0.51294,-3.5896,6.1541,-4.1023,23.5896,
14.1028,8.4617,15.1282,-5.8972,-39.7437,-37.6924,-11.5383,1.282,-1.282,4.3591,-7.4358,13.0769,-8.4617,20.7693,
13.5898,7.9487,17.6924,-0.25635,-41.282,-37.6921,-8.9741,0.25635,-2.8203,0.76953,-7.9487,10.5132,-5.3843,19.231,
12.8206,5.1282,16.4104,1.5383,-44.1025,-41.0256,-9.7434,-1.0256,-2.051,1.0256,-6.1536,10.2566,-4.6155,20.0002,
12.3081,7.1797,13.3335,0,-44.1023,-38.9741,-10.769,-1.5381,0,1.5386,-7.1792,7.6924,-7.1792,23.5898,
13.5896,9.4871,16.1541,-5.3845,-41.7949,-37.1794,-4.3591,-1.7947,7.4358,-0.25659,-1.282,0.25659,0.76929,22.8206,
9.2305,7.1792,12.3076,-12.3076,-48.718,-40.5129,-12.3076,-2.0513,2.0513,-0.5127,0.51269,0,0,16.9229,
4.8716,2.3076,10.5127,-13.5898,-56.1538,-43.8462,-16.6665,-2.3076,1.2822,1.7949,-1.2822,10,-6.4102,14.6152,
3.0771,5.1284,10.2568,-12.3076,-50.2561,-40.5127,-15.3843,0,0,2.5645,-5.6406,14.3594,-8.7178,21.5386,
6.9231,10.0002,10.0002,-8.4612,-39.2307,-34.6152,-15.6409,5.3845,-3.3333,3.3333,-6.9231,8.4617,-6.9231,27.4358,
10.5127,4.8716,14.6152,-7.9487,-38.718,-36.1541,-12.564,3.8462,-1.7949,1.7949,-6.4102,6.9229,-7.436,22.8203,
6.6665,6.1538,13.8462,-6.6665,-38.4617,-36.9231,-12.8203,4.1025,-2.564,2.564,-4.6152,13.8462,-8.2051,25.6411,
7.4358,7.9485,11.0256,-8.9744,-36.6667,-34.6155,-11.5383,1.282,-1.282,2.8206,-3.8464,12.5642,-2.8206,26.9231,
16.1538,6.9233,15.6411,-7.4355,-33.0767,-26.9229,-11.0254,0.25635,-0.25635,4.8721,-3.8462,17.1797,-2.3076,24.8721,
11.7949,8.2051,15.3848,-3.5898,-38.9744,-27.1797,-16.9233,6.1538,-4.6152,3.5898,-7.1797,24.1025,-9.7437,25.1284,
6.667,10.2563,16.9233,-2.564,-45.6409,-34.3589,-11.7949,6.667,-2.0513,2.0513,-10.769,15.8975,-6.1538,23.0771,
10.5132,8.4619,16.667,-1.7949,-30.6409,-29.4868,-8.9741,4.8721,-6.4102,1.7949,-15.6411,5.3848,-4.3589,23.8462,
16.9231,7.1794,21.0256,-1.0256,-15.6409,-23.5896,-8.2048,6.6667,-8.718,1.0256,-11.282,5.6414,-5.1282,25.1282,
19.7434,10.5129,24.8718,-0.76929,-16.6667,-26.4104,-7.4358,6.9231,-4.3591,0.76929,-4.8718,10.5129,-2.8206,20.2561,
12.3079,12.8206,17.4358,-2.5642,-22.051,-28.718,-9.7434,4.1028,-2.5642,1.5383,-8.718,9.2307,-1.5383,15.8977,
5.3848,8.4619,16.667,-9.4868,-21.7949,-32.564,-8.4614,0.25635,0.76953,-1.2817,-8.9741,3.8462,-0.25635,16.667,
10.2563,8.7178,20.5127,-8.2051,-21.5386,-30.2563,-6.6665,4.1025,-2.564,2.564,-4.6152,14.8716,-4.1025,24.1025,
15.1284,7.9487,18.2051,-2.3076,-24.3589,-27.436,-9.4873,2.3076,-5.8975,9.4873,-7.9487,27.436,-10.5127,24.3589,
12.3076,8.2051,20.5127,0,-27.1797,-28.7183,-10.7695,-1.5386,0,13.8462,-8.2051,28.7178,-9.7437,23.5898,
2.8206,7.949,18.2053,-5.8972,-37.6924,-33.5896,-12.5642,3.8459,-2.8206,8.4617,-7.4358,22.8206,-7.9485,24.8718,
0,5.1284,17.9487,-9.2305,-52.3076,-37.4358,-8.7178,9.7437,0,1.5386,-4.1025,15.8975,-2.564,24.1025,
0.25635,6.4102,15.1284,-10.5127,-51.5386,-36.1538,-10.5127,4.3589,1.7949,-0.25635,-4.3589,5.8975,-1.7949,19.7437,
4.6152,10.769,13.3335,-9.231,-38.4617,-34.8718,-8.7178,-0.5127,4.1025,0.5127,-3.5898,-4.6152,0.5127,10.2563,
9.7437,8.2051,18.4614,-5.6411,-31.2822,-35.3848,-6.6665,2.564,4.6152,0,-6.6665,-6.1538,0,5.6411,
10,9.4873,18.2051,1.7949,-28.9746,-29.4873,-11.0259,6.9229,-1.7949,3.8462,-11.5386,-2.3076,-4.8721,16.6665,
10.5129,12.5642,15.1282,-0.25659,-33.0769,-30.5129,-4.3591,-0.25659,0.25659,6.9231,-6.4104,-2.8206,1.7947,15.1282,
6.6667,9.2307,10.2566,-7.6921,-35.3848,-36.9231,-2.0515,-6.1541,-1.0256,6.1536,-4.6155,4.6155,1.0256,5.6409,
4.1023,4.6155,10.7693,-5.6409,-31.7949,-35.8975,-2.0515,-0.51294,0.51294,6.1536,-1.0256,13.8459,-1.0256,12.8206,
6.9229,3.8462,12.564,-8.4619,-35.6411,-34.1028,-1.7949,-2.3076,3.333,-1.7949,1.7949,-1.1541,3.8462,11.5381,
10.5127,12.0513,13.5898,-9.4873,-36.6667,-30.5129,-3.8462,0.25635,0.25635,-6.9233,-0.25635,-16.1541,4.8716,8.4614,
11.5383,13.0769,19.2307,-5.8972,-29.4873,-31.5386,-0.25659,0.25659,0.76929,-5.3845,-4.8718,-12.0515,3.3333,11.5383,
18.4614,8.7178,23.5894,-0.51318,-15.8975,-30.2563,3.0767,-3.5898,0.5127,-1.0259,-10.2563,0,0,12.8203,
20,9.231,24.1025,2.0513,-15.3848,-24.6152,0,-1.5386,-1.0254,2.564,-12.3076,0,-4.1025,8.7183,
10.2563,11.7949,23.0771,2.0513,-30.3848,-28.2051,-0.5127,0.5127,2.564,-0.5127,-5.6411,-4.6152,-3.5898,5.6411,
3.0771,12.8208,15.8975,2.564,-36.4102,-32.3076,-4.6152,0.5127,3.0771,-5.1279,-0.5127,-4.1025,-1.0254,8.7178,
3.8459,8.9744,17.6921,0.76929,-37.6924,-30,-4.3591,-2.8206,5.3845,-5.3845,-0.76929,-6.4104,1.282,7.4358,
5.1282,6.6667,23.0769,1.5383,-48.7178,-25.6409,-6.1536,-2.5642,2.5642,0.51294,-2.5642,-0.51294,-3.0769,16.4104,
3.333,6.9229,13.5898,2.3076,-38.718,-26.4102,-11.5386,-2.3076,-4.8721,2.8203,-6.4102,10,-7.9487,23.8462,
7.9487,6.9233,14.6152,-1.2822,-23.718,-25.3848,-2.8203,-3.3335,1.2822,1.2822,-7.436,12.0513,-1.7949,18.7178,
7.9487,7.9487,18.7178,-6.4102,-8.718,-25.3848,-0.25635,-6.9233,-2.3076,0.25635,-14.6157,6.4102,-1.7949,6.9229,
7.1797,9.231,17.9487,-2.564,6.282,-32.8206,3.5898,-7.1792,-0.5127,0.5127,-14.3589,-4.1025,1.5386,-1.0254,
3.0769,6.1536,14.3586,-4.1028,13.8459,-42.5642,5.6409,-4.6155,7.1794,-6.6667,-8.718,-19.1025,3.5896,-3.0769,
-4.1028,6.6667,13.8459,-8.2053,7.1794,-38.4617,3.0769,-0.51294,8.718,-12.8206,-2.0515,-29.7437,4.6155,0.51294,
-4.3589,5.8975,13.5898,-10,6.9233,-34.1025,-0.25635,-3.8462,9.4873,-13.5898,5.3848,-26.4102,10.5127,0.25635,
-3.8459,4.3591,7.4358,-8.9744,5.8977,-31.5383,-5.3845,-3.3333,5.8977,-6.4104,3.3333,-17.1794,5.8977,3.8464,
-8.2051,3.0767,10.769,-10.2563,-2.0513,-28.2053,-2.0513,0.5127,7.6924,0,0,-8.2051,1.0254,11.7949,
-10.2563,3.5898,16.4102,-12.8203,0,-31.282,1.0259,-2.0513,10.2563,0,-0.5127,-1.5386,2.0513,18.4614,
-11.0259,3.3335,10.5127,-12.0513,2.3076,-38.2051,-5.3848,-6.9229,2.3076,1.7949,-3.8462,1.2822,-1.2822,13.0771,
-10,0.76904,13.5898,-5.8975,-1.7949,-38.2051,-0.76904,-5.3848,4.3589,5.3848,0.76904,-4.3589,1.7949,1.7949,
-13.8462,2.0513,11.7949,-6.667,2.564,-36.4104,1.5386,-5.1284,5.1279,-2.564,5.6411,-15.3848,3.5898,-1.5386,
-12.8206,6.6667,9.2307,-11.282,3.0769,-34.8718,5.6409,-6.6667,7.6921,-8.718,10.2561,-24.1028,7.1794,-3.0769,
-5.3845,10.5129,16.1541,-8.4617,-2.8206,-26.9231,13.5896,-1.282,15.1282,1.282,15.6409,-17.6924,15.1282,-3.8459,
-12.0513,3.8462,9.4873,-10,-5.3848,-26.4104,1.2822,-1.2822,6.4102,1.7949,6.9229,-9.4873,6.4102,-3.3335,
-11.5386,3.333,11.5381,-8.9746,3.8462,-29.4873,-1.7949,-3.3335,8.4614,-2.3076,3.8462,-2.3076,3.8462,1.7949,
-8.7183,2.564,13.3335,-9.7437,2.0513,-31.7949,-1.0259,-5.6411,6.1538,-0.51269,-3.0771,5.6411,0.5127,6.1538,
-9.2305,2.0513,9.7437,-10.2563,-4.1025,-29.7434,0,-6.1538,3.5898,5.6411,-4.1025,11.7949,0,14.3594,
-14.1025,0.25635,5.8975,-14.1025,-0.76953,-34.1028,-0.25635,-10.5132,5.8975,2.8203,-2.8208,6.9229,0.76904,13.0767,
-18.7178,1.2822,3.8462,-15.6411,1.2822,-32.564,-1.2817,-8.4614,6.4102,-0.25635,0.25635,-0.25635,4.3589,3.3335,
-14.8713,5.1287,10.7693,-14.8713,-5.1282,-30.2561,6.6667,-4.1023,13.8464,3.0769,12.8206,-5.1282,15.385,-3.0769,
-13.8459,4.6155,9.7439,-15.8972,-9.2307,-32.8203,2.5642,-5.6409,10.7693,1.0256,12.3079,-8.7175,11.2825,-1.0256,
-11.2817,5.6411,9.7437,-8.2051,-3.0767,-27.1792,0,0,11.7949,-0.51269,10.2568,-5.6406,12.3081,5.1284,
-13.0767,1.7949,12.0513,-9.4873,-11.5386,-36.6667,2.8203,-3.3335,17.6924,-1.2822,10.5127,-10,15.1284,1.2822,
-18.9741,1.0256,9.7439,-12.8201,-23.5896,-42.564,-1.0256,-5.6409,12.3079,5.1287,9.2312,-5.6409,7.6926,2.0515,
-15.6409,0.76929,9.4871,-9.9998,-24.3586,-33.0769,-5.8972,-4.8718,3.8464,2.3079,2.8206,3.3333,-0.76929,3.3333,
-4.3589,9.4873,15.6411,0.76904,-13.5898,-18.0769,-4.8721,-0.25635,1.2817,0.25635,-1.7949,14.6152,-2.8208,13.5898,
-11.5383,11.0256,12.5642,-0.25659,-27.4358,-3.0769,-5.8972,0.25659,1.282,1.7947,-3.3333,19.2307,-3.8459,25.8972,
-16.4102,2.564,11.7949,-6.6665,-42.4358,-6.1538,-5.1279,-0.5127,5.6411,-0.5127,1.0259,15.8975,0.51269,27.6924,
-11.5386,-0.25635,9.4873,-4.8716,-52.0513,-3.8462,-11.5386,0.25635,0.25635,-2.3076,1.7949,12.5645,1.7949,20.2563,
-12.8206,0.51294,9.2307,-3.5896,-49.7437,-2.5642,-13.3333,3.0769,1.0256,-2.5642,-0.51294,5.6409,2.5642,14.3591,
-13.3333,2.5642,12.3079,-2.051,-55.3845,-2.5642,-10.7693,9.2307,4.6155,-1.5383,-2.5642,1.5383,3.5896,18.4617,
-12.3076,3.5898,8.2051,1.5386,-53.8462,-2.564,-13.3335,6.1538,-0.5127,0.5127,-8.2051,5.6411,-1.5386,23.0771,
-11.7949,0.51269,11.2822,1.5386,-48.2051,-2.564,-9.2305,-1.5386,3.0771,0.51269,-2.564,13.8462,-0.5127,26.6665,
-13.8459,-0.51294,11.282,-5.6409,-46.1538,-2.5642,-10.2566,1.0256,2.0515,-2.5642,3.0769,15.8977,0.51294,24.1028,
-15.385,-1.0256,6.1536,-11.7952,-51.7952,-6.6667,-11.2825,3.0769,1.0256,-4.6155,1.5383,9.2307,1.5383,17.4358,
-17.4358,-1.0256,6.6667,-7.6921,-56.4104,-4.6155,-9.2307,1.0256,4.6155,-1.0256,1.0256,13.8459,2.051,25.1282,
-19.7439,1.7947,5.3845,-5.8977,-55.1284,-1.7952,-13.5901,2.3074,2.3074,-2.3079,0.76929,13.5896,-0.76929,26.9231,
-13.0769,2.8206,6.9231,-11.0256,-51.5383,-6.9231,-15.6409,3.8459,2.3079,-3.3333,1.282,1.282,-1.282,13.0769,
-10.5127,3.333,8.9741,-10,-46.9231,-4.8721,-16.1538,3.8462,2.8203,1.7949,-0.25635,0.25635,-3.8462,13.5898,
-15.8975,0.5127,9.231,-8.7178,-49.2307,-2.564,-13.3335,2.564,5.6411,2.0513,2.564,-0.5127,-1.0254,16.4102,
-18.4617,-0.51294,8.718,-9.2307,-52.3079,-8.2053,-13.3333,0.51294,3.5896,0.51294,3.5896,-3.5896,3.0769,9.2307,
-15.3843,0,6.667,-8.2051,-48.7178,-9.2305,-14.8716,2.0513,0,2.5645,-0.5127,3.0771,0,14.3594,
-12.0515,-0.76929,9.4871,-9.9998,-48.9744,-6.9231,-8.9744,1.7947,4.8718,2.3079,0.76929,11.0256,-1.282,24.3591,
-14.6157,3.333,6.9229,-13.5898,-47.9487,-4.8721,-12.0513,4.8716,0.25635,1.2817,-0.25635,15.1279,-5.3848,24.8716,
-8.4619,10,11.5381,-8.4619,-39.231,-1.2822,-8.4619,11.0254,-1.7949,5.8975,0.25635,19.7437,-0.25635,25.8975,
-1.7949,6.9233,15.1284,-6.9229,-32.0513,-4.3589,-1.7949,6.9233,-0.25635,1.7949,-2.3076,16.1538,0.25635,25.3848,
-1.282,11.5383,14.1028,-4.8718,-30.5129,0.25659,-3.8459,12.5642,2.3079,-2.8206,-0.76929,11.0256,-0.25659,31.0256,
-6.9231,12.5637,12.5637,-7.949,-44.8718,0.76929,-6.4104,14.6155,4.8718,-8.4617,-0.76929,-3.9744,3.8459,28.4612,
-7.4358,7.9485,12.051,-7.4358,-43.8462,1.282,-7.4358,11.0256,1.7947,-7.949,-1.282,-11.5383,2.8206,18.2053,
-8.9744,3.3333,11.0256,-4.3591,-37.1794,0.25659,-8.9744,4.3591,2.3079,-8.9744,2.3079,-10.0002,-0.25659,11.5383,
-14.1028,0.76929,11.0256,-3.8459,-45.3848,-0.76929,-7.949,0.76929,6.4104,-9.4871,2.8206,-9.4871,4.8718,13.5896,
-14.3589,5.1284,9.231,-6.1538,-43.0769,3.0771,-6.1538,6.667,2.0513,-3.5898,-2.0513,-8.2051,8.2051,16.4102,
-8.2053,6.6667,12.3074,-8.718,-32.8206,-0.51294,-1.0256,5.1282,5.1282,-1.0256,0.51294,-7.1794,7.1794,10.7693,
-4.3589,3.3335,9.4873,-9.4873,-31.5383,-3.333,-2.8203,-0.76904,5.8975,0.25635,1.7949,-0.25635,3.3335,13.0771,
-5.6409,-1.0256,1.5388,-11.282,-38.4614,1.5388,-4.615,2.5642,1.0256,-1.0256,-2.5637,1.5388,1.0256,23.0769,
-8.9744,1.7947,3.8459,-12.0515,-44.3589,2.3079,-2.8206,9.4871,2.3079,-6.4104,-2.8206,-1.7947,1.7947,28.4617,
-8.4617,8.9744,5.3845,-7.949,-45.3845,3.8459,-10.0002,14.6155,-0.76929,-5.3845,-0.25659,7.4358,0.25659,30.5129,
-4.6155,5.1282,2.5642,-9.2307,-48.7178,7.1794,-8.718,11.282,-0.51294,-1.0256,-0.51294,17.4358,0.51294,27.6921,
-5.8972,1.282,1.7947,-15.1282,-50.5127,4.3591,-3.8459,7.949,-1.7947,1.282,-4.3591,14.6155,-1.282,27.4358,
-4.8718,5.3845,8.4617,-12.5642,-41.282,1.282,-1.282,11.0256,-2.3074,6.4104,-1.282,14.1028,-1.282,26.4104,
-0.25635,2.8203,11.0254,-11.0259,-34.1028,-4.3589,-1.7949,7.9487,-1.2822,5.3843,0.25635,14.1025,-0.25635,14.1025,
2.0513,5.1279,6.6665,-8.2051,-35.3848,-2.5645,-5.6411,7.6919,-5.1284,3.5894,-5.6411,11.2817,-2.0513,9.7437,
-0.76929,7.4363,6.4104,-8.9744,-38.7178,0.76929,-4.3586,6.9231,-5.3845,1.7952,-12.051,7.949,-3.8459,12.5642,
-0.76929,0.76929,6.4104,-13.0769,-37.6924,0.76929,-9.4871,4.8718,-5.3845,1.282,-11.5383,9.4871,-8.9744,17.6921,
2.564,0,9.7437,-7.6924,-41.0256,0,-11.2822,7.1797,0,7.6924,0,16.4102,-4.6152,26.1538,
-5.1284,-5.6411,10.769,-11.2822,-51.2822,-9.231,-6.6665,2.0513,1.5386,7.6924,0.5127,14.8716,-0.5127,22.0513,
-3.5894,0,11.7949,-9.2305,-41.0254,-1.0254,-1.5381,7.1797,0,14.3594,-1.5381,21.5386,0,26.1538,
0.25635,1.7949,9.4873,-9.4873,-39.7437,-0.76904,-3.3335,3.3335,-0.25635,9.4873,-2.8203,12.0513,-1.7949,19.7437,
2.3076,-0.25635,10.5127,-15.1284,-44.3591,-3.3335,-2.3076,-1.7949,0.25635,0.76904,-3.3335,0.76904,1.7949,13.5898,
-0.25635,3.3335,6.4102,-18.2051,-36.6665,1.7949,-0.25635,3.3335,0.25635,-1.7949,-3.8462,-0.76904,6.9233,17.1797,
-1.7947,-0.25659,4.8718,-20.2566,-33.5898,0.25659,2.8206,3.3333,1.7947,-4.3591,-1.7947,-9.4871,6.9231,15.1282,
-0.51269,0.5127,6.1538,-20,-34.3589,2.0513,0.5127,1.5386,-3.0767,-1.5386,-1.5386,-3.5898,3.0771,21.5386,
-1.5386,0,8.2051,-25.6411,-34.3589,0,-0.51269,2.564,-4.6152,5.1284,-2.0513,11.4102,3.5898,25.6411,
-1.0256,-3.0769,11.7952,-29.7437,-28.2048,-5.1282,1.5383,5.6409,-1.5383,8.718,-0.51294,17.4358,0.51294,16.9231,
-0.25659,0.25659,11.0256,-30.5129,-24.3591,-2.3079,0.25659,5.8972,-3.8459,8.9744,-2.8206,16.1541,-4.8718,14.1028,
-2.564,1.0259,11.2822,-35.8975,-36.4102,-1.0254,1.0259,0,-1.0254,3.0771,-4.1025,9.231,0,16.4102,
-2.0513,3.0771,11.2822,-35.8975,-39.4871,-1.0254,0.5127,-1.0254,2.0513,-0.5127,-1.0254,3.0771,4.1025,19.4873,
0.5127,2.564,9.7437,-32.3076,-31.7949,0.5127,-1.0254,1.0259,-1.0254,-3.0767,-0.51269,-3.5898,1.0259,14.3589,
2.0513,1.5386,15.8975,-28.2051,-26.1538,9.7437,-2.0513,6.6665,-1.5386,-5.1284,-2.0513,-4.1025,2.0513,14.3589,
-1.0256,2.0515,16.9231,-24.6152,-30.769,19.4875,-5.1282,13.8464,-1.0256,-2.051,-1.5383,1.0256,3.5901,27.6926,
-7.6919,0,12.3081,-28.7178,-42.564,10.7695,-8.7178,4.6157,-3.0767,0,-2.0513,3.5898,1.0259,29.7437,
-5.1282,6.1536,14.8718,-26.1541,-36.4104,12.3079,-8.718,0.51294,-2.0515,7.6921,-1.0256,17.9485,-0.51294,28.718,
-7.949,2.8206,13.5896,-26.9231,-33.5898,14.6155,-9.4875,3.8459,-3.3333,5.3845,-2.8206,18.2048,-3.8464,27.9485,
-12.0515,-1.282,14.1028,-26.4104,-37.6924,11.5383,-5.3845,6.4104,-2.3079,0.25659,0.76929,7.4358,-0.25659,28.9744,
-19.2307,-1.7947,10.5129,-21.7947,-39.2307,9.4871,-8.4617,1.7947,-5.8972,1.282,1.282,2.3079,-1.282,19.7434,
-17.1792,-0.25635,13.5898,-17.6924,-35.6409,10.5127,-4.3589,-3.8462,0.25635,2.3076,3.3335,-5.3843,1.2822,9.4873,
-8.2053,1.0256,16.4104,-15.3845,-29.2307,12.8206,-1.0256,-2.5642,1.0256,-4.1023,1.5383,-17.9485,1.0256,11.7947,
-6.6667,5.1282,15.3845,-8.2053,-25.6411,14.3591,-0.51294,5.1282,-1.5383,-7.1794,1.5383,-13.3333,0.51294,16.9231,
-10,6.9229,15.6411,-6.4102,-32.0513,15.6411,-1.7949,7.436,-0.76904,-2.8203,0.25635,1.6667,-0.25635,20.2563,
-12.8203,7.1797,12.8208,-8.2051,-28.2051,25.6411,-9.7437,10.7695,-6.6665,5.6411,-6.6665,16.6667,-5.6411,35.2563,
-13.0771,4.3589,14.6152,-10,-23.3335,24.8716,-8.4614,9.4873,-5.8975,12.0513,-6.9233,31.6667,-4.3589,46.9229,
-15.6411,3.3335,12.0513,-11.5386,-31.5386,12.0513,-7.436,3.8462,-5.3848,16.1538,-5.3848,38.7178,-3.3335,35.6411,
-18.4614,5.6411,10.2563,-8.7178,-37.4358,11.7949,-9.231,1.5386,-3.5898,16.9233,-1.5386,24.6152,-2.564,21.5386,
-20.769,-0.25635,16.1538,-11.5386,-38.7178,12.564,-6.4102,-3.333,1.7949,7.436,-1.2817,9.6152,1.2822,8.4614,
-22.0515,3.0769,13.8459,-14.8718,-38.4617,8.718,-5.1282,3.5896,0.51294,-0.51294,-3.0769,-5.3848,5.6409,4.6155,
-23.3333,6.9231,6.9231,-17.6921,-42.3076,9.4871,-4.3591,7.4358,2.3079,-3.3333,-2.3079,-14.1023,11.0256,7.4358,
-25.8975,-0.76929,3.8464,-17.1794,-41.282,14.1028,-6.9231,2.8206,4.8718,0.76929,-2.3074,-7.9485,5.3845,16.1541,
-29.7437,-5.1284,4.1025,-16.9233,-43.0769,12.3076,-11.2822,3.0767,0,3.5898,-3.5898,0,0.5127,20,
-26.6667,-1.0256,8.718,-17.9485,-44.6155,7.1794,-5.1282,5.1282,3.0769,-2.0515,-1.5383,1.0256,9.7434,20.0002,
-22.5642,0,7.6924,-18.9746,-34.3591,8.7178,-8.7183,1.5386,0,-3.0771,-3.5898,2.564,8.2051,23.0767,
-22.3074,-1.7947,8.9744,-15.6409,-33.5896,7.4358,-10.5129,-0.76929,1.282,2.8206,-1.7947,0.76929,4.3591,19.7439,
-25.6411,0,8.7178,-11.2822,-46.6667,0,-8.2051,0.5127,6.1538,3.0771,0,-3.5898,5.6411,14.8716,
-27.1794,2.0513,4.1025,-9.7437,-44.1023,2.5645,-12.8203,0,2.0513,0,-5.6411,-4.1025,2.5645,16.4106,
-13.8462,4.6152,13.8462,-7.1797,-29.1023,15.3848,-7.1797,6.1538,0,0,-3.5898,-1.0259,1.5386,17.9487,
-1.7949,12.564,18.7178,-1.2822,-14.1023,23.333,-1.7949,12.564,-2.8208,0.25635,-3.3335,-0.25635,0.25635,18.7178,
-4.6152,9.7437,12.3076,-0.5127,-6.1538,16.4102,0.5127,3.0771,-3.5898,-6.1538,-11.7949,-9.7437,1.0259,15.3848,
-5.3848,2.3076,17.6924,-1.2822,-15.6411,15.1284,-0.76904,1.7949,0.76904,-5.3848,-11.5386,-7.9487,3.8462,17.6924,
-11.0254,0.25635,18.2051,-3.333,-16.1538,20.2563,-7.436,6.4102,-1.2817,0.25635,-7.436,-0.25635,3.8462,20.2563,
-16.9233,3.0767,14.8716,-5.1284,-16.4102,14.3589,-4.6152,0,0.5127,0,-3.5898,-3.5898,5.1279,14.8716,
-14.6152,6.4102,12.0513,-0.76904,-17.6924,13.0771,-7.436,3.8462,-2.3076,0.76904,-2.3076,2.8203,-1.7949,18.2051,
-10.2563,0.5127,8.7183,-0.5127,-18.9741,19.4873,-10.769,11.7949,-5.1279,4.1025,-3.0767,15.3848,-5.6411,25.1284,
-8.2048,-2.5642,11.282,-5.1282,-15.3845,24.6155,-6.6667,10.2566,-1.0256,11.7952,-1.0256,21.5383,1.0256,27.1794,
-14.3591,1.0256,5.6409,-9.7434,-19.9998,20.0002,-8.718,7.6921,-6.6667,10.2566,-6.1536,21.0256,-1.0256,30.2566,
-15.6414,1.282,4.8718,-7.4358,-25.3845,13.5896,-7.949,9.9998,-3.8464,8.4612,-5.3845,21.7947,-1.282,30.5129,
-15.3848,0,5.1284,-5.6411,-17.9487,16.4102,-7.6924,9.7437,0,15.3848,-2.0513,16.4102,-1.0254,19.4873,
-20.5127,-1.0254,0.51318,-11.2817,-21.5381,12.3076,-6.6665,1.5386,1.5386,12.3076,-1.0254,1.4102,0,4.4873,
-18.2051,-0.25635,3.8462,-8.9741,-29.4871,5.8975,-0.25635,-1.2817,7.436,6.4102,0.25635,-7.436,6.4102,3.3335,
-17.9487,1.0254,3.5894,-5.1284,-25.6414,2.0513,-6.1543,0,0,4.6152,-6.667,-9.7437,1.5381,8.7178,
-17.1797,-0.76904,7.436,-5.8975,-16.6665,4.8716,-6.4102,1.2822,0.76904,2.8203,-3.8462,-8.9746,1.2822,8.9741,
-18.2048,-3.8459,4.3591,-8.9744,-13.5896,13.0769,-5.3845,3.3333,2.3079,-0.76929,1.7952,-1.282,0.76929,20.2566,
-20.2566,-1.282,-0.25659,-12.0515,-23.8459,15.1282,-6.9231,4.3591,2.3079,0.25659,2.8206,1.7947,-0.25659,29.4871,
-20.5127,-3.5898,1.5386,-16.4102,-33.8462,9.2305,-7.1797,0.5127,-0.51269,1.5386,-0.51269,3.0767,0.5127,20.5127,
-19.7439,-1.7952,3.8459,-12.0515,-24.3591,12.5637,-7.949,0.76929,-5.3845,5.3845,-0.76929,12.051,0.76929,16.1536,
-20.2563,-0.76904,5.8975,-8.4614,-21.2817,10,-2.8203,-0.76904,-0.25635,6.9233,0.25635,6.9233,2.3076,14.1025,
-20.769,-1.2822,2.3076,-13.5898,-30,0.25635,-4.3589,0.25635,0.76904,5.3848,-4.8716,-0.25635,1.2822,10.5127,
-21.5386,0.5127,-2.564,-16.9233,-32.3079,3.5898,-9.7437,2.564,-0.5127,4.6152,-5.6411,3.5898,2.0513,11.2817,
-21.7947,-1.282,-0.25659,-18.718,-25.8972,10.5129,-6.4104,-1.282,2.8206,4.8718,0.25659,1.7947,4.3591,15.1282,
-21.7949,-1.2817,-0.25635,-18.7178,-18.7178,15.6411,-5.3843,0.25635,0.25635,5.8975,1.2822,-1.2817,2.3076,15.1284,
-19.9998,-1.5383,-0.51294,-16.4104,-21.0256,15.3845,-4.1023,5.1282,3.0769,1.5383,0.51294,-2.5642,5.1282,14.8718,
-20.7695,-2.3076,0.25635,-14.6157,-21.2822,14.6152,-5.3848,7.4355,3.8462,-0.25635,-2.8208,0.25635,5.3843,24.3589,
-19.7437,-1.7949,4.3589,-11.5386,-13.5898,15.1279,-6.9233,13.0767,-4.8721,4.8716,-5.3848,10.5127,1.7949,34.1025,
-11.7949,2.0513,9.7437,-9.2305,-5.1279,13.8462,-2.564,11.7949,-6.1538,11.2822,-4.6152,20.5127,-2.0513,28.2051,
-11.0256,-0.25659,1.282,-13.0769,0.25659,15.1282,-9.4871,3.8464,-10.5129,13.0769,-10.5129,25.3845,-12.5642,20.7693,
-9.4871,-5.3845,5.8972,-12.5642,2.8206,17.1794,-4.8718,7.4358,-2.8206,14.6155,-2.8206,26.9231,-2.8206,26.9231,
-9.7434,-5.1282,9.2307,-17.4358,-2.051,9.2307,-1.0256,6.1541,-1.0256,-0.38452,1.0256,11.9231,3.5896,17.4358,
-6.1538,8.2051,4.6152,-17.436,10.2563,12.8208,-0.5127,8.2051,-2.564,-9.7437,-3.0767,-3.0769,0.51269,4.6152,
-0.5127,8.7178,4.1025,-16.9233,24.6152,20,0.5127,7.1797,-0.5127,-3.0771,-3.0771,-8.2051,-2.0513,9.7437,
0.76929,-0.76929,0.76929,-18.718,30.5129,24.3591,-7.4358,-1.282,-10.5129,2.8206,-7.9485,6.7949,-10.5129,24.3591,
4.6155,-1.5383,1.5383,-17.4358,45.5129,27.1794,-8.718,-1.5383,-16.4104,2.5642,-16.4104,21.7949,-15.8977,28.2048,
10.2563,-0.5127,2.564,-17.9487,60.5129,23.0767,-9.231,0.5127,-22.0513,-4.6152,-24.6152,11.2822,-23.5898,22.564,
17.1797,5.8975,1.7949,-16.6665,75.5129,29.4873,-10,-1.7949,-27.436,-6.4102,-25.8975,8.4614,-26.9229,17.6924,
20.7693,7.9485,3.8459,-16.1541,90.5129,38.2053,-3.8459,-5.8972,-20.7693,-6.9231,-26.4104,5.3845,-19.7434,5.8972,
22.3076,11.0254,4.3589,-14.6152,105.5129,41.7949,-2.3076,-0.76904,-18.2051,-7.9487,-27.9487,0.76904,-15.6411,4.8716,
25.3845,12.051,2.8206,-17.6921,120.5129,39.2307,-1.282,1.282,-22.8206,-14.6155,-25.8972,-11.0256,-19.7434,7.4358,
27.436,6.4102,-0.25635,-20.2563,117.6924,36.1538,1.2817,0.25635,-27.436,-24.3589,-30,-22.3076,-23.8462,2.3076,
22.564,5.6406,-2.0513,-16.4106,114.8716,31.7949,2.0513,3.5894,-29.7437,-26.1538,-32.8208,-19.4873,-21.0259,6.1538,
19.2307,7.4358,2.8206,-14.6155,105.3845,24.8718,4.3591,-2.8206,-24.3586,-22.3074,-27.4358,-17.6921,-18.718,7.4358,
19.231,8.9746,5.8975,-10.5127,91.5386,28.9746,3.8462,-3.8462,-22.8203,-12.0513,-24.8716,-10.5127,-20.2563,7.436,
11.5383,2.3079,2.8206,-13.0769,76.5386,25.3845,0.76929,-0.76929,-22.8206,-9.4871,-24.8718,-5.3845,-18.2048,8.4617,
5.8975,0.25635,5.8975,-17.6924,61.5386,15.1284,2.3076,-0.25635,-13.0767,-5.8975,-13.0767,-0.25635,-7.9487,7.436,
-0.76929,3.8459,0.76929,-20.7693,46.5386,8.9744,-1.282,1.7947,-12.5642,-1.282,-7.4358,1.7947,-6.4104,6.9231,
-1.7947,5.8977,1.282,-17.6921,31.5386,8.4617,3.3333,4.8718,-8.9744,-2.3074,-8.9744,-1.282,-3.3333,12.5642,
-2.3079,3.8464,4.3591,-19.2307,24.8718,6.9231,2.8206,1.282,-10.5129,-4.8718,-17.6921,-1.282,-5.8972,12.5642,
-2.5637,1.0256,4.1028,-21.0256,19.4875,9.2312,-1.0256,1.0256,-12.8201,-3.0769,-14.3586,2.5642,-8.2048,10.2566,
-3.3333,-0.76929,1.282,-23.3333,13.0769,6.9231,0.76929,2.8206,-11.5383,-6.9231,-7.4358,5.8977,-4.3586,12.0515,
-1.7949,3.8462,-0.76904,-18.2051,18.2051,7.436,0.76904,3.8462,-13.0767,-5.8975,-11.5386,8.4614,-1.7949,16.6665,
-1.5383,-1.0256,1.0256,-15.3845,12.3079,8.2053,5.1282,1.0256,-8.2048,-2.051,-12.3074,5.1282,-2.051,12.3079,
-5.1279,-7.1792,2.564,-18.4614,-1.5386,6.1538,7.1797,4.1025,-0.5127,-2.0513,0.51269,0.51269,-2.0513,11.2822,
-11.7949,-6.1538,0,-21.0259,-5.1284,1.0254,1.5381,3.5894,0,-3.0771,5.1279,-9.231,0,13.333,
-11.7947,-3.0769,2.5642,-19.9998,-2.5642,-0.51294,2.5642,0.51294,3.5896,-1.0256,5.6409,-12.3079,7.1794,13.8459,
-13.8464,-1.0256,-1.0256,-18.9744,-7.1799,6.6663,2.051,4.615,1.0256,-1.0256,2.5637,-4.1028,4.615,13.8459,
-16.6667,-4.3591,-0.25659,-21.282,-13.0769,9.4871,2.3079,0.25659,-0.76929,1.282,-0.25659,6.4104,0.76929,15.1282,
-17.1794,-6.4104,1.282,-22.8206,-8.4617,9.4871,-1.282,-4.3591,-1.7952,7.4358,2.8206,14.1023,1.7947,21.282,
-21.5386,-4.1025,-5.1284,-20,-9.231,9.2305,-5.6411,1.5386,-1.5386,6.1538,6.1538,14.3589,3.0767,17.436,
-25.1284,-5.6411,-2.564,-21.0259,-17.436,8.2051,-0.5127,-1.0259,0.5127,3.5898,3.0767,12.3076,3.5898,9.7437,
-22.3076,-1.2822,3.8462,-18.2051,-12.5645,15.6411,0.25635,-0.76953,-1.7949,10,-0.25635,20.769,5.3843,24.7437,
-25.6411,-1.0256,-0.51294,-19.4871,-17.9485,13.3333,-0.51294,2.0515,-0.51294,8.2053,0.51294,19.4871,5.6409,31.7947,
-29.4873,-3.8462,-3.3335,-20.769,-27.9487,10.5127,-0.76904,2.8203,-0.76904,4.8716,0.76904,16.1538,1.7949,22.3076,
-25.3848,-0.76929,3.8459,-15.1282,-21.282,18.718,-1.282,5.8972,-1.7947,8.9744,-0.76929,19.2307,0.76929,19.2307,
-23.5896,-3.0769,5.1282,-17.4358,-21.0256,15.3845,-1.5383,2.0515,-0.51294,0.51294,-1.5383,7.1794,4.1028,15.8977,
-21.7949,-2.8208,0.25635,-19.231,-24.3591,13.5894,-1.2822,4.3589,-0.25635,-4.3594,1.2817,2.8203,5.3843,19.2305,
-24.1028,-3.0771,0,-20,-24.6157,15.897,-1.0259,4.1025,0,-0.51318,3.5894,3.0767,5.6406,20.5127,
-22.8203,-6.4102,2.8203,-20.769,-19.7437,17.1797,-0.25635,-0.76904,-1.2822,1.7949,0.25635,5.3848,3.8462,17.1797,
-25.8977,-11.0256,1.282,-19.7439,-32.5642,13.5896,-2.3079,2.3074,-2.3079,5.3845,-1.282,12.051,3.8459,18.718,
-33.8462,-14.8718,1.5383,-23.5896,-46.1538,4.6155,-3.0769,-1.0256,0.51294,3.0769,-0.51294,6.6667,5.1282,15.8977,
-30.5129,-6.9229,5.3848,-22.8203,-31.1538,7.9487,0.25635,-2.3076,-1.2822,1.7949,-0.25635,4.8716,4.3589,17.1797,
-25.1282,-6.1541,3.0769,-25.1282,-16.1538,3.5896,7.6921,1.0256,-1.0256,-1.5383,-1.5383,-1.5383,4.6155,11.7947,
-25.8975,-12.5642,1.282,-31.0256,-1.1538,-10.5129,14.6155,0.76929,4.3591,-4.3591,-0.76929,-14.6155,9.4871,4.3591,
-26.6667,-7.6924,0,-30.2563,13.8462,-9.7437,13.3335,-4.1025,4.1025,0,4.6152,-13.3335,13.8462,5.6411,
-27.9487,-8.9744,0.25659,-32.0513,26.4104,-9.4871,12.5642,-6.9231,5.8977,-0.25659,10.5129,-2.3079,12.5642,3.3333,
-36.1541,-17.1794,-4.8718,-37.6924,19.2307,-16.1541,6.4099,-5.3845,0.76929,-0.76929,3.3333,4.3586,2.8206,4.8718,
-35.3845,-14.8716,-4.6152,-34.8718,26.6665,-14.8716,4.1025,-5.1279,-1.5386,5.6411,1.5386,5.6411,4.1025,12.3076,
-32.8206,-14.8718,-0.51294,-34.8718,23.5896,-16.4104,4.6155,-8.2053,-2.051,2.5642,3.5896,0.51294,8.2053,4.6155,
-30.769,-11.7947,-1.5383,-33.8459,17.949,-12.8206,5.1282,-2.5637,-1.0256,1.0256,5.1282,2.5642,9.2307,2.5642,
-30.769,-13.333,-3.5894,-35.8972,16.9233,-12.8203,7.6924,-6.1538,2.0513,0,2.5645,0,9.231,4.6157,
-28.9744,-12.0513,-0.25635,-35.1282,19.7437,-11.0259,7.9487,-3.8462,0.25635,1.2822,2.3076,-0.25635,6.4102,7.436,
-29.4871,-13.5898,-1.7949,-35.1282,20.7695,-12.564,5.8975,0.25635,-3.333,-0.25635,0.25635,1.2822,0.76953,2.3076,
-30.5129,-15.6411,0.25635,-31.5386,17.6924,-15.1284,8.4614,-3.3335,0.76904,2.3076,-0.25635,1.7949,3.3335,-0.76904,
-31.0256,-13.0769,-0.25659,-25.3848,18.2053,-12.0515,5.8972,-1.282,0.25659,8.4617,-0.76929,0.25659,1.282,3.8459,
-28.4617,-16.6667,-0.76929,-25.8972,17.6921,-14.1028,7.4358,0.76929,0.25659,5.3845,0.76929,-4.3591,-0.25659,1.7947,
-27.9487,-17.1792,0.25635,-27.9487,11.0259,-16.1538,8.4614,-5.3843,0.76953,1.7949,3.8462,-0.25635,1.2822,-3.333,
-36.9233,-13.8464,-2.0515,-31.2822,2.051,-14.8718,3.0769,-11.2825,1.0256,4.615,1.5383,4.1023,1.5383,-1.0256,
-40.769,-17.6921,-3.8459,-36.1538,-0.76929,-17.6921,0.76929,-11.0256,4.3591,9.4871,1.282,3.8464,4.3591,3.8464,
-38.9744,-17.436,-6.1538,-36.9231,1.5386,-20.5127,-1.5386,-8.7183,2.0513,12.3076,3.0767,8.2051,5.6411,4.1025,
-38.4614,-10.2563,-1.0259,-34.8718,-1.5386,-16.4102,4.6152,-9.231,6.6665,10.769,6.6665,6.1538,10.769,1.0259,
-36.6667,-6.4102,2.3076,-33.5898,-0.25635,-8.4614,11.0254,-5.8975,15.6411,7.436,10.5127,-0.76953,13.0767,0.25635,
-37.1797,-6.9233,0.25635,-33.5898,1.7949,-10,13.5898,-0.25635,16.6665,3.333,14.1025,-5.3848,15.6411,-1.7949,
-36.6667,-5.8977,6.9231,-34.6155,0.76929,-17.1797,19.2307,-0.76929,16.6667,0.76929,17.6921,-4.3591,21.7947,-0.76929,
-40.5127,-11.2817,1.0259,-40,4.6157,-20.5127,8.7183,-7.6924,6.667,0,6.667,-3.0767,10.7695,0,
-35.1284,-14.1028,0.76929,-36.6667,3.3333,-17.1797,12.051,-4.8718,14.1023,7.9485,13.5896,-0.76929,14.6155,-2.8206,
-34.3589,-13.8462,3.5896,-34.8718,-11.6667,-18.4614,16.4104,-1.5383,25.1282,14.3591,26.6667,1.5383,25.1282,-5.1282,
-40.2563,-12.0513,-1.7949,-36.6665,-23.3333,-12.0513,5.3848,-2.3076,16.667,14.1025,18.7183,11.5386,17.6924,1.7949,
-36.1538,-12.564,-2.3076,-36.6667,-21.7949,-0.76904,0.76904,-3.8462,7.436,5.8975,4.8716,16.6665,6.4102,5.3848,
-30.7693,-13.8462,-1.5386,-30.7693,-36.4102,11.2822,-0.51269,2.0513,3.0771,0.5127,-0.51269,16.4102,2.0513,8.2051,
-36.4104,-15.8977,-4.6155,-29.7437,-51.4102,13.3333,-7.6926,4.6155,1.0256,0.51294,-0.51294,15.3845,3.5896,9.2307,
-38.2051,-12.564,-3.3335,-28.4614,-66.4102,13.0771,-11.5386,5.3848,0.25635,4.3589,-0.25635,23.8462,1.2822,10.5127,
-32.5642,-6.4102,-0.25635,-21.7949,-65.3845,17.1797,-8.9746,10.5127,0.25635,12.0513,2.3076,33.0771,-0.76904,14.6152,
-34.3591,-12.8206,-2.0515,-24.1028,-71.2822,12.8206,-9.7434,7.6921,1.5383,13.8459,0.51294,28.2048,-0.51294,9.7434,
-35.3845,-12.8203,-2.0513,-22.564,-67.6921,14.3589,-14.3589,10.2563,1.0259,19.4873,0,35.3848,0,12.3076,
-33.3333,-12.3076,-2.0513,-22.564,-65.6409,13.8462,-13.3335,10.2563,1.5386,17.9487,1.5386,37.9487,-1.5386,13.8462,
-26.6665,-11.7949,0,-23.5898,-61.0256,13.3335,-8.2051,4.6152,0,10.7695,2.0513,31.7949,-1.0254,13.3335,
-24.6152,-3.5898,2.0513,-20,-51.2822,17.436,-8.2051,9.2305,-4.1025,11.2822,1.5386,35.8975,-1.5386,16.9229,
-30.769,-6.1538,0,-25.1279,-61.0256,12.8208,-11.2817,9.7437,0,9.7437,1.0259,31.2822,-2.564,12.3076,
-33.8462,-11.7949,-2.0513,-26.6665,-71.282,11.7949,-14.8716,5.6411,0.51269,9.231,2.564,26.1538,-0.5127,12.8208,
-33.8462,-12.3079,-1.0256,-21.0256,-69.7437,10.7693,-13.8459,1.0256,-1.0256,12.8206,3.0769,28.2053,2.0515,11.7952,
-34.6155,-12.564,1.7949,-19.231,-68.9744,6.9229,-11.0259,0.25635,2.8203,19.7437,-0.25635,33.0767,-2.3076,7.436,
-33.8462,-13.8464,2.051,-21.5383,-64.6155,12.3079,-11.282,7.1794,1.0256,24.1023,-1.0256,35.8972,-5.6409,16.4104,
-31.5386,-17.6921,4.3591,-28.4617,-59.7437,12.5642,-7.4358,5.8972,0.76929,17.6921,-0.76929,29.4871,-1.7947,15.6409,
-29.2307,-12.3079,6.6667,-33.3333,-56.9231,11.282,-8.2048,4.1028,1.5383,19.4871,-1.5383,32.8206,-2.051,9.2307,
-31.7949,-9.7437,6.6665,-36.9231,-64.1025,11.2822,-10.2563,6.1538,0.5127,27.1797,-0.5127,40,-3.5898,16.9233,
-36.4104,-14.3591,3.0769,-44.1025,-68.718,6.1541,-7.6921,2.051,-1.0256,25.1282,1.0256,39.9998,-5.1282,19.9998,
-36.1541,-7.4358,-1.282,-43.3335,-56.6667,12.051,-4.8718,4.8718,1.282,25.3845,3.3333,43.3333,-1.282,15.6409,
-36.1538,-12.0515,-2.3079,-45.3845,-57.6924,11.5383,-7.4358,3.8459,2.8206,19.2307,0.25659,31.0256,-0.25659,8.4617,
-28.9744,-14.1028,4.8718,-42.8206,-54.1025,8.9744,-6.9231,3.8459,0.25659,17.6921,-0.25659,25.8972,-3.8459,12.5642,
-30.769,-7.6924,4.6152,-37.9487,-49.7434,8.7183,-3.5898,5.6411,0.5127,19.4873,-0.5127,32.3076,-2.564,11.2822,
-38.9744,-11.7949,0.51269,-43.5896,-58.9744,7.1797,-5.6411,3.5898,1.5386,12.3076,-3.5898,27.1797,-0.5127,5.6411,
-34.1025,-12.0513,-0.25635,-43.8459,-57.1794,13.0771,-5.8975,7.9487,2.3076,13.0771,0.25635,23.8462,-1.2817,13.0771,
-34.1025,-15.6409,-0.76929,-43.8462,-61.282,6.9231,-4.3591,0.76929,3.8459,12.0515,2.8206,24.3591,-0.76929,7.9485,
-35.6411,-13.5898,0.25635,-43.3335,-62.8206,9.4873,-5.3848,2.3076,1.7949,12.0513,-1.2822,25.3843,-0.25635,11.5386,
-26.6667,-0.51294,2.0515,-36.9231,-54.8718,24.4873,-6.1536,15.8977,0.51294,16.4104,-1.0256,26.6667,-0.51294,26.5386,
-26.1536,-7.6921,3.0769,-38.4614,-69.8718,34.8718,-6.6667,10.2566,0.51294,12.8206,-0.51294,28.2053,-5.6409,24.6155,
-27.1797,-8.2051,7.1792,-31.7949,-84.8718,38.9741,-3.5898,11.7949,0,20,0,43.2053,-4.6152,26.6665,
-24.3589,-4.3589,8.4614,-28.4614,-76.1538,40.2563,-1.7949,14.1025,1.2822,28.4614,-1.2822,50,-3.3335,30,
-25.1282,-8.718,6.1541,-28.718,-64.6152,35.3845,-4.6155,9.2307,1.0256,25.6414,-1.0256,41.5383,-5.6409,27.1794,
-30.5129,-4.8716,4.8716,-24.8716,-71.5386,34.6152,-5.8975,13.0771,-0.76904,19.231,0.76904,37.6924,-2.3076,23.8462,
-31.5386,-4.8718,3.3333,-25.8972,-82.3076,27.4358,-4.3591,12.5642,-0.76929,15.1282,-1.7947,26.4104,0.76929,17.1794,
-24.8718,-4.8718,1.7947,-20.7693,-72.0513,26.4104,-2.8206,12.0515,0.76929,21.282,-2.3079,29.9998,-0.76929,21.7947,
-23.8459,-6.9231,1.282,-19.2307,-67.9485,34.1028,-1.282,12.0515,2.8206,20.2566,-1.282,42.3079,-2.8206,28.4617,
-25.3848,-7.9487,4.8716,-20.2563,-71.0256,39.7437,-3.8462,12.0513,0.76904,16.6665,-2.8203,39.7437,-0.76904,29.4873,
-19.7437,-2.3076,11.0254,-13.0771,-58.718,42.8203,-5.8975,17.1797,-1.2822,20.769,-1.2822,33.0771,1.2822,30.5127,
-24.3589,-7.9487,6.9233,-22.3076,-57.1794,34.6152,-6.4102,11.0259,0.76904,13.5898,-0.76904,21.7949,-5.3848,22.3076,
-28.2048,-6.1536,-0.51294,-26.1536,-65.1282,38.4617,-5.1282,9.7439,4.1028,15.3845,0.51294,24.6155,-4.1023,21.0256,
-31.5386,-8.4614,-3.3335,-21.2822,-71.0256,39.2305,-7.9487,11.0254,2.3076,22.3076,1.7949,31.5386,-1.7949,23.333,
-35.8972,-12.8206,0.51294,-18.4617,-64.6155,33.3333,-12.3079,11.282,-0.51294,21.5383,1.5383,38.4617,-8.2053,29.7434,
-36.6667,-6.4104,5.3845,-12.051,-53.5898,41.282,-9.9998,16.6667,-0.76929,24.3591,0.76929,48.4617,-5.8972,41.282,
-37.949,-5.6411,5.6406,-12.8208,-58.4617,43.0767,-5.1284,12.3076,0,20.5127,-2.0513,41.5381,0,31.7949,
-39.4873,-8.2053,5.1282,-15.3845,-58.4617,43.5896,-6.6667,14.3591,1.0256,16.4104,-1.0256,37.9485,-1.5383,25.1282,
-45.3845,-13.0769,1.282,-17.6921,-61.282,42.3079,-9.9998,15.1282,1.7952,14.1028,-1.282,34.6155,-3.3333,25.3845,
-46.6667,-13.8464,-0.51294,-15.8977,-65.6411,39.9998,-5.6409,8.718,2.051,10.2566,0.51294,25.6409,-1.0256,22.5642,
-45.1284,-9.7439,1.0256,-13.3337,-55.3848,42.051,-5.1282,10.2561,-1.0256,8.2048,4.1023,26.6663,-4.1028,26.1536,
-48.2053,-11.282,3.0769,-22.0515,-52.8208,38.4612,-5.1282,10.7693,1.0256,6.1536,-1.0256,22.051,-4.1028,22.051,
-46.4102,-7.9487,0.76904,-24.3589,-52.5642,40.2563,-0.76904,11.0259,-0.76904,5.8975,-10,14.1025,0.76904,13.5898,
-42.8203,-5.3845,0.76929,-17.6921,-46.4102,40.7693,1.7952,13.5901,-4.3586,2.3079,-9.4871,12.0515,-0.76929,9.4871,
-39.7437,-7.436,7.9487,-15.6411,-38.2053,38.7178,2.3076,12.0513,-0.25635,0.25635,-4.8721,19.2305,-3.8462,12.564,
-35.3845,-5.6411,6.6665,-10.769,-23.2053,47.1797,0,11.7949,0,8.7183,-2.564,26.6665,-5.1279,22.0513,
-29.4873,-7.436,5.3848,-7.9487,-10.5127,54.6152,2.8203,12.564,-2.8203,10,-4.3589,22.3076,-5.8975,22.3076,
-25.8975,-4.3589,9.4873,-9.4873,-4.3589,59.7437,4.3589,14.1025,-5.8975,6.9229,-10,20.769,-6.9233,21.7949,
-27.1797,3.0771,5.6411,-12.8203,-3.0771,64.1025,-1.5386,11.7949,-7.6924,1.5386,-16.4102,15.3848,-9.7437,17.436,
-21.7952,0.25659,4.3591,-11.0256,6.4104,68.4617,-0.25659,12.051,-4.8718,-1.7952,-16.1541,6.4104,-9.4871,8.9744,
-10.7695,0,4.1025,-9.231,21.4104,77.9482,0,18.9741,-12.3081,-5.1284,-22.0518,2.564,-15.8975,10.2563,
-2.5642,4.1028,4.1028,-13.8459,36.4104,84.6155,2.5642,11.282,-19.9998,-17.9485,-30.7693,-9.7434,-19.4871,6.1541,
5.1282,10.7693,8.718,-11.7947,51.4104,86.1541,8.2053,5.1282,-19.9998,-20.5129,-28.2048,-16.4104,-17.4358,-5.1282,
7.9487,14.1025,10,-7.9487,66.4104,81.2822,10,13.0771,-19.2305,-18.7178,-25.8975,-16.6665,-17.1792,-12.0513,
10,12.0513,11.5381,-10,81.4104,72.564,14.6152,14.6152,-19.231,-27.436,-25.8975,-27.9487,-14.6157,-15.1284,
10.0002,13.5896,11.5383,-8.9744,96.4104,63.3333,14.1028,8.9744,-22.3079,-26.4104,-24.8718,-31.5383,-13.5896,-14.6155,
6.9231,16.1536,15.6409,-6.9231,111.4104,52.051,14.6155,7.4358,-17.6921,-13.0769,-22.3079,-19.2307,-11.0256,-7.949,
1.7949,8.9746,14.1025,-8.4614,113.5898,43.8462,13.5898,7.9487,-18.7178,-10.5127,-24.3589,-9.4873,-12.0513,-1.7949,
1.5386,6.1538,10.7695,-6.6665,102.5645,47.6924,15.8975,10.2563,-16.9229,-10.2563,-16.4102,-6.1538,-9.2305,-1.5386,
0.51294,9.2307,13.3333,-5.6409,89.2307,44.1028,20.0002,10.7693,-5.1282,-5.6409,-2.051,-10.7693,-0.51294,-5.6409,
-7.6924,11.2822,10.2563,-8.2051,75.8975,36.4106,16.4106,12.8208,-3.0767,-4.6152,-3.0767,-14.3589,2.0513,-2.0513,
-17.1797,2.8203,8.4614,-13.5898,60.8975,29.4868,15.1279,9.4868,-2.8208,-10,-6.4102,-16.667,2.3076,-2.3076,
-20.7693,-1.282,11.0256,-14.6155,45.8975,28.4617,13.0769,6.9231,1.282,-8.9744,-1.282,-11.0256,4.3591,-4.3586,
-25.6411,1.5386,3.5898,-17.436,30.8975,28.2051,5.6411,8.7178,-1.5386,-5.1284,-3.0771,-2.0513,3.5898,-2.564,
-27.6924,-2.0513,1.0259,-24.6152,22.564,23.0771,10.769,8.2051,-0.5127,-5.6411,-8.2051,0.5127,3.5898,-0.5127,
-30.5129,-3.8459,3.3333,-24.8718,20.7693,20.7693,9.9998,6.9231,-4.8718,-5.3845,-8.9744,1.282,-1.282,7.4358,
-32.3079,-1.0259,6.1538,-17.9487,12.3076,17.9487,8.7178,4.6152,-4.1025,-4.1025,-3.0771,0,0,10.2563,
-34.6155,-3.3335,4.3589,-19.231,-1.7949,13.0771,9.4873,1.2822,1.7949,-1.7949,-1.2822,-2.3076,4.3589,2.3076,
-40.769,-10,-3.333,-24.8716,-4.8716,15.6411,2.8208,2.8208,0.25635,5.3848,-5.8975,4.3589,1.7949,-0.25635,
-41.7947,-15.6411,-0.25635,-25.3843,-1.2817,13.0771,4.3589,0.25635,1.7949,6.4102,-4.8716,8.9746,1.2822,-0.76904,
-35.8972,-10.2561,6.1541,-19.9998,-1.5383,9.7439,8.2053,-3.0769,-1.0256,1.0256,-3.0769,3.5901,1.5388,1.0256,
-34.3589,-6.6665,7.6924,-16.9229,-3.0767,13.3335,9.7437,2.0513,-6.6665,0,-5.6411,0,2.0513,7.1797,
-41.282,-16.1536,0.25659,-21.282,0.76929,10.0002,3.8464,1.282,-11.0256,-0.25659,-16.1536,4.3591,-7.4358,6.4104,
-38.4617,-12.8203,-1.5386,-15.3848,6.1538,14.3589,1.5386,3.0767,-7.1797,7.1797,-13.3335,16.9229,-6.6665,12.3076,
-34.1025,-8.9741,2.8203,-17.6924,-8.8462,11.5386,3.8462,-0.76904,-0.76904,4.8716,-4.8716,8.4614,0.76904,8.9741,
-29.7434,-10.2566,4.6155,-22.5642,-14.8718,8.718,1.5383,1.0256,-1.0256,3.0769,-3.0769,4.6155,-3.0769,7.1794,
-26.1538,-11.2817,0,-18.9741,-5.1279,12.3076,0,4.6152,2.0513,6.6665,-1.0254,5.1284,-2.564,11.2822,
-28.2051,-13.8462,-0.5127,-18.9741,-8.2051,14.3589,4.1025,-1.0254,7.6924,0.5127,5.1284,-7.1792,6.6665,4.1025,
-31.2822,-10.7693,1.0256,-20.5129,-6.6667,18.9744,6.6663,4.1023,6.1536,-2.5642,6.1536,-8.2053,8.7175,-1.0256,
-35.6409,-16.1538,-0.25635,-24.3589,-11.0254,12.5645,1.7949,3.3335,1.7949,-0.25635,0.25635,-0.25635,1.7949,3.3335,
-36.1538,-19.231,1.7949,-23.3335,-11.0259,10,-2.3076,0.25635,-0.25635,5.8975,0.25635,5.3848,-1.2822,9.4873,
-35.6411,-16.1538,3.333,-20.2563,-3.8462,13.0767,-0.25635,0.76904,0.25635,4.8716,-0.25635,1.7949,-1.2822,0.76904,
-33.3333,-14.8716,2.0513,-22.564,-8.7178,11.2822,4.1025,0,6.1538,2.0513,0,2.5645,0,0,
-33.3333,-15.3845,-2.051,-22.5642,-16.9231,10.7693,-2.5642,1.0256,4.1028,4.6155,1.5383,11.7947,-1.0256,15,
-33.8464,-14.3591,-1.0256,-22.5642,-19.4875,9.7434,-4.1028,3.0769,1.0256,5.1282,1.5383,10.7693,-1.0256,14.8718,
-28.4614,-10,2.3076,-20.2563,-15.1284,11.5386,0.25635,3.8462,-0.25635,7.4355,-1.7949,10,-0.76953,7.4355,
-24.3589,-11.5386,1.7949,-18.2051,-6.9229,12.5645,-0.25635,3.8462,-2.3076,8.9746,-2.3076,12.5645,0.25635,10,
-27.1794,-20.0002,1.5383,-23.5901,-4.1028,5.1282,1.5383,1.0256,-1.5388,1.0256,-1.0256,1.0256,-1.0256,9.7434,
-21.5383,-12.8206,6.1536,-17.949,-0.51294,9.2307,5.6409,4.6155,-1.5383,0.51294,1.0256,-5.1282,-1.0256,9.7434,
-15.6411,-8.9746,7.436,-10.5127,-5.3848,12.564,6.4102,4.3589,-1.2822,-0.25635,0.25635,-5.8975,1.2822,0.25635,
-13.0771,-6.9229,7.436,-11.0259,-5.8975,11.5386,4.8716,7.9487,1.2822,-2.8203,0.25635,-1.2822,2.3076,-0.25635,
-14.3591,-1.0256,5.6409,-14.8718,-1.5383,10.2561,4.1023,12.3074,-0.51294,-2.0515,-0.51294,2.051,0.51294,9.2307,
-17.4358,-5.1282,5.6409,-14.8718,-5.6409,6.6667,5.1282,8.2048,0.51294,-0.51294,-1.0256,-3.0769,0.51294,9.2307,
-18.2051,-9.4873,3.333,-10,-6.9233,10,0.25635,6.9229,-0.25635,5.3843,-2.3076,5.3843,-0.76953,12.564,
-17.9487,-9.231,1.5386,-14.3589,-6.6665,11.2822,0.5127,4.6152,-0.5127,4.6152,-3.0771,12.8203,-1.0259,11.2822,
-15.6411,-8.4614,2.3076,-19.231,-2.8203,6.9229,6.4102,2.3076,-0.76904,0.25635,-0.76904,3.3335,0.25635,-0.25635,
-16.6665,-8.4614,0.25635,-15.1284,-1.7949,10,3.8462,4.8716,-2.8203,3.3335,2.8203,0.76904,-0.25635,-1.2822,
-21.2822,-13.5898,-0.25635,-18.2051,-16.667,10,-0.25635,0.25635,-1.2822,0.76904,0.76904,2.8203,0.76904,4.8716,
-19.7437,-8.4614,-0.25635,-19.2305,-17.6924,10,1.2822,3.8462,-2.3076,0.25635,-1.2817,5.3848,1.2822,14.6157,
-13.8462,-7.1792,2.0513,-13.8462,-8.2051,8.7178,3.5898,6.6665,-4.6152,0,-2.564,1.0259,0,10.769,
-5.3845,-5.3845,12.5642,-8.4617,-0.25659,13.0769,6.9231,8.4617,-1.7947,0.25659,-2.3079,-0.25659,4.3591,4.8718,
-8.718,-2.051,7.6921,-13.8459,5.1282,14.8718,4.1028,8.718,-7.6921,-8.2053,-6.1536,-1.5383,1.5383,5.6409,
-10.7693,-5.1282,2.5642,-16.9231,6.6667,13.8459,11.282,4.1023,-2.5642,-11.7952,-2.5642,-4.6155,3.5896,7.6921,
-11.0256,-9.4871,0.25659,-18.2053,-4.8718,12.5642,8.9744,0.76929,0.25659,-7.949,-0.25659,-8.4617,5.8972,4.8718,
-10,-7.436,3.3335,-18.7178,-7.436,7.9487,5.8975,4.3589,-0.25635,-8.9746,3.3335,-13.0771,8.4614,0.25635,
-6.6665,-7.1792,6.667,-20,1.0259,5.1284,8.2051,2.0513,0,-13.333,0,-15.3843,7.1797,-3.0767,
-3.0771,-2.564,5.1279,-14.3589,3.5898,15.3848,4.1025,2.0513,-2.0513,-5.1284,-5.6411,-4.6152,2.564,5.1279,
-8.2051,-3.5898,3.5898,-14.3589,-3.5898,13.3335,-0.5127,4.6152,-2.564,2.0513,-3.0771,0.5127,1.5386,11.7949,
-13.5898,-8.4614,0.76904,-20.2563,-1.2822,10,-1.2822,5.8975,-5.3848,2.3076,-0.25635,4.3589,0.25635,14.1025,
-14.6152,-10,-6.4102,-27.436,0.76904,14.1025,3.3335,5.8975,-4.3589,-0.25635,-2.8203,2.3076,0.25635,10,
-10.769,-8.7178,-3.0767,-28.2051,4.6152,11.2822,6.6665,6.1538,0,-2.564,-2.564,0,2.0513,8.2051,
-8.9746,-4.3589,3.333,-19.7437,15.6411,11.0254,-0.25635,10.5127,-4.3589,-3.8462,-5.8975,6.9229,0.25635,12.564,
-9.4873,-9.4873,3.3335,-19.7437,19.231,12.564,-0.76904,6.9233,-8.4614,-8.9741,-10,2.8203,0.76904,9.4873,
-3.8462,-8.4614,6.9229,-17.1797,34.231,16.1538,6.9229,8.4614,-5.8975,-7.436,-4.8721,-1.7949,1.7949,10,
-8.7183,-5.1284,5.1279,-18.4614,46.6665,15.3848,6.1538,9.2305,-3.0771,-6.1538,0,-6.1538,0,10.769,
-17.436,-8.2051,-0.5127,-28.718,43.0771,12.8208,4.1025,4.1025,0.5127,-9.7437,-0.5127,-13.8462,4.1025,9.7437,
-15.1279,-6.4102,0.25635,-27.4358,56.667,18.7183,2.3076,9.4873,-3.333,-6.4102,-0.25635,-6.4102,6.9233,15.1284,
-16.9231,-11.7952,3.0769,-27.6921,64.6155,14.8718,3.5896,5.1282,-7.1794,-11.7952,-3.0769,-8.2053,3.5896,10.7693,
-18.4617,-10.7693,5.6409,-26.1538,68.2053,15.3845,9.7434,2.5642,-3.5896,-17.4358,-2.5642,-17.9485,9.2307,5.1282,
-20.7693,-6.4104,0.25659,-26.4102,76.6667,21.7952,9.4871,7.4358,-2.8206,-15.1282,-0.25659,-20.7693,12.5642,5.8977,
-25.3848,-8.4617,-0.76929,-30.5129,86.4104,19.7434,8.4617,3.8459,-0.76929,-10.5129,0.76929,-12.0515,7.4358,4.8718,
-30.7693,-5.1284,0,-28.718,101.4104,21.0259,8.7178,4.6152,-1.0259,-6.1538,0,-3.5898,6.1538,6.1538,
-33.8462,-6.1538,-1.5386,-28.2051,116.4104,26.6665,11.7949,5.6411,-0.5127,-8.7178,0.5127,-7.6924,10.769,8.7178,
-35.3848,-13.3335,-3.5898,-25.6411,131.4104,29.7437,10.769,2.0513,-2.0513,-9.7437,3.5898,-7.1797,7.6924,14.3589,
-34.3589,-11.7947,-5.6409,-23.5896,146.4104,29.7439,10.2566,1.5388,-5.1282,-9.2307,1.5388,-1.0256,1.0256,16.4104,
-30.7693,-8.7178,-1.0254,-23.5898,161.4104,28.7178,14.3589,0,-1.5386,-9.7437,0,0.5127,6.1538,12.8208,
-31.0259,-8.9744,-0.76929,-23.3333,176.4104,32.051,12.5637,3.3333,-2.8206,-6.9231,0.76929,-2.8206,8.4612,12.051,
-32.8206,-9.7437,-1.5386,-24.1025,191.4104,33.3335,17.9487,7.1797,-2.0513,-7.6924,1.5386,-10.769,9.7437,6.6665,
-32.8203,-8.718,1.0256,-25.1282,206.4104,31.282,20.0002,6.1541,-3.0769,-11.282,-1.0256,-10.2561,7.6926,5.1282,
-28.718,-6.1538,0,-21.0259,221.4104,35.3843,13.333,6.1538,-4.1025,-7.6924,-2.0513,0,3.5898,12.3076,
-26.9233,-10,-4.3594,-24.3591,236.4104,30,16.1538,4.3589,0.25635,-7.436,-0.25635,-3.3335,6.4102,4.8716,
-25.8975,-8.4614,-8.4614,-25.8975,251.4104,28.4614,21.2822,7.436,-1.7949,-10,1.7949,-7.9487,12.564,4.3589,
-25.1282,-2.5642,-5.1282,-22.0513,266.4104,32.8206,21.0256,7.1794,-2.5642,-9.7434,2.5642,-8.718,14.8718,11.7947,
-21.2822,-2.3076,0.76904,-21.7949,271.0254,32.564,18.2051,6.9229,-3.3335,-12.0513,-0.76904,-12.564,8.9741,6.4102,
-20.2563,0.76904,-0.76904,-21.7949,274.1025,33.5898,15.1279,14.1025,-8.9746,-16.1538,-3.8462,-12.564,4.8716,4.3589,
-23.0767,0,0,-22.0513,272.3076,30.769,16.9233,8.7178,-4.6152,-15.3848,-4.1025,-11.2822,6.1538,3.5898,
-20.769,-3.3335,1.7949,-21.2822,268.4614,28.4614,17.1797,2.8203,-1.7949,-6.9233,-3.3335,-4.8721,7.9487,3.8462,
-20.769,-6.4102,-2.8208,-23.8462,263.8462,24.3589,14.1025,5.3848,-3.8462,-2.8208,-1.2822,1.2822,9.4873,6.9229,
-24.1025,-9.231,-10.7695,-31.7952,264.1025,18.4614,10.2563,2.564,-4.6157,-5.6411,0,0,5.6406,4.6152,
-21.5386,-5.6411,-13.3335,-33.8462,279.1025,22.0513,8.7178,3.0767,-2.0513,-8.2051,2.564,-4.6157,5.6411,2.0513,
-15.8975,-6.1538,-6.1538,-34.3589,294.1025,22.5645,13.3335,5.1284,4.1025,-16.4102,4.6157,-16.4102,13.3335,-4.1025,
-12.8203,-6.1538,-0.5127,-30.2563,309.1025,24.1025,12.8203,8.2051,0.5127,-17.436,2.564,-19.4873,16.4102,-2.0513,
-12.8206,-4.6155,-1.0256,-23.0771,324.1025,27.1794,10.2561,7.6921,-5.6414,-10.7693,1.0256,-9.7439,11.282,9.7434,
-9.231,-3.5898,0.5127,-22.0513,339.1025,28.2051,12.3076,1.5386,-6.1538,-5.6411,-2.0513,-0.51269,6.1538,15.8975,
-4.8716,0.76904,-3.3335,-24.3589,354.1025,30,11.5386,0.76904,-10,-4.8716,-8.9746,-0.76904,4.3589,5.8975,
-0.76904,-0.25635,0.25635,-21.2817,356.1538,31.5386,18.7183,4.3589,-4.3589,-5.8975,-2.3076,-3.8462,11.0259,0.25635,
-7.436,-7.436,0.76904,-22.8208,361.7949,25.8975,15.1279,-0.25635,-4.8721,-5.8975,0.25635,-2.3076,5.3843,11.5381,
-8.2053,-1.5383,-2.0515,-18.9744,369.7434,21.5383,13.3333,1.5383,-2.5642,-3.0769,-3.5896,2.051,5.1282,16.4104,
-6.667,0,0,-18.4619,360.5127,16.4102,20,4.1025,-0.51318,-8.7183,-4.6157,-2.5645,9.2305,2.0513,
-13.333,-5.1279,0,-19.4868,345.5127,17.9487,17.436,4.6157,-6.6665,-7.6924,-0.5127,0.51318,6.1538,0,
-20.5127,-12.8208,-5.6411,-23.0771,330.5127,21.5386,12.3076,2.564,-8.2051,-8.2051,0,0,5.6411,2.564,
-11.2822,-3.0771,-2.5645,-15.8975,327.6919,36.5386,16.9229,13.8457,-1.0259,-6.1543,0,0,10.769,15.3843,
-14.8718,-1.5383,-1.5383,-15.8972,312.6919,46.1541,8.718,13.8464,-10.7693,-6.1536,-7.6921,1.5383,2.0515,18.9744,
-22.8203,-8.4614,-1.2822,-18.2051,297.6919,36.6665,2.3076,5.8975,-12.564,-6.4102,-7.9487,6.9233,1.2822,10.5127,
-23.3333,-4.8718,-3.8459,-14.1028,282.6919,41.282,4.3591,10.5129,-8.4617,-5.8972,-6.4104,12.5642,3.8459,13.5896,
-22.3076,-5.3843,-1.7949,-14.1025,267.6919,44.8721,8.9746,11.5386,-6.4102,-3.333,-5.3843,15.1284,1.7949,24.8721,
-27.949,-10.5129,-4.3591,-19.7439,252.6919,38.2048,2.8206,4.8718,-9.4871,1.282,-7.4358,22.3074,-1.282,26.4104,
-30.769,-5.1284,-8.7178,-16.4102,238.4614,41.5386,-1.5386,10.2563,-11.7949,4.1025,-8.7178,28.7178,1.5386,29.7437,
-29.7437,-4.6152,-5.1284,-17.9487,242.564,42.564,4.1025,12.3076,-9.231,-4.1025,-7.6924,14.8716,4.6152,24.1025,
-29.4871,-7.4358,-3.3333,-22.8206,246.4104,38.718,7.4358,11.0256,-8.4612,-8.9744,-2.8206,2.8206,2.8206,17.1794,
-34.8718,-8.7178,-6.6665,-24.6155,242.564,34.3589,8.2051,9.7437,-3.5898,-5.6411,2.0513,-2.0513,7.1797,14.3589,
-42.3076,-13.5896,-12.051,-27.9485,241.282,26.4104,4.8718,5.8977,-6.4099,-2.8206,-3.8459,2.8206,4.8718,11.5388,
-43.0769,-14.3589,-13.333,-27.6924,248.2051,27.1797,0.51269,6.667,-10.769,3.0771,-8.7178,17.8206,-0.5127,12.8208,
-39.4873,-14.8716,-13.3335,-29.231,243.5898,28.7178,0.5127,4.6152,-7.6924,3.0767,-5.1284,19.4873,-0.5127,11.7949,
-33.5898,-10.5127,-11.5386,-22.8203,244.8716,32.0513,0.25635,6.4102,-10.5127,2.3076,-3.3335,14.6152,-0.25635,14.6152,
-33.5898,-5.8975,-5.3848,-17.6924,251.0259,32.564,5.8975,8.4614,-10.5127,-1.2822,-5.3848,9.4873,1.2822,13.0771,
-37.9487,-8.2051,-2.564,-24.1025,247.6924,28.7183,8.7183,7.6924,-4.1025,-3.0767,-5.1279,2.564,3.5898,9.7437,
-41.282,-13.5898,-9.4868,-26.4102,245.8975,26.9233,-0.25635,6.4102,-6.4102,3.3335,-5.3843,7.436,0.25635,11.5386,
-36.6665,-18.2048,-7.9485,-18.2048,253.0769,25.385,1.282,2.8206,-7.9485,7.949,-4.3586,19.7439,-1.282,17.6926,
-34.1025,-14.6152,-5.3848,-14.6152,255.1279,24.8716,3.8462,4.3589,-12.0513,6.4102,-7.436,25.3848,-3.8462,24.3589,
-36.6665,-9.9998,-7.4358,-19.7434,249.4875,26.9231,1.282,5.385,-13.0769,5.385,-9.9998,20.7693,-1.282,20.7693,
-35.3845,-14.3586,-7.6921,-22.051,254.8718,27.1799,-1.0256,1.0256,-11.7947,3.0774,-8.7175,18.9744,1.5388,12.8206,
-28.9744,-9.4871,-5.8972,-17.6921,265.3845,29.4871,-0.25659,5.3845,-10.5129,4.8718,-2.3079,22.3079,0.25659,14.6155,
-32.3079,-12.8206,-7.1794,-22.5642,252.8206,21.0256,1.0256,2.0515,-10.7693,2.5642,-1.0256,8.718,-3.5896,13.3333,
-34.3589,-13.333,-6.6665,-18.4614,251.7949,23.5898,4.1025,3.0771,-10.769,-1.0254,-0.5127,3.5898,0.5127,20.5127,
-38.718,-11.5386,-10,-20.7695,256.1538,25.3848,4.8716,5.3848,-11.5386,-7.436,-1.7949,1.7949,1.7949,14.1025,
-40,-11.7947,-8.2053,-27.6921,248.718,20.5129,4.6155,3.5896,-6.6667,-3.0769,-1.0256,4.6155,1.0256,2.5642,
-41.7949,-10.0002,-10.0002,-23.8464,245.8972,22.8206,0.76929,4.8718,-7.949,7.9485,-2.8206,15.1282,-0.76929,12.051,
-43.5896,-13.8459,-13.8459,-26.1536,246.1541,20.0002,1.0256,2.5642,-8.7175,6.1541,-5.6409,9.7439,-1.0256,17.949,
-38.718,-13.0771,-11.0259,-28.4614,250,18.2051,0.25635,2.8203,-7.9487,0.76904,-6.9233,2.8203,-0.25635,10,
-31.7949,-6.1536,-4.6155,-17.4358,258.9744,26.6667,4.1028,7.6921,-4.6155,-1.5383,-3.5896,6.6667,1.5383,8.2053,
-29.2305,-6.1538,-2.0513,-15.3848,258.4614,27.6924,9.231,8.7183,-1.0254,-3.5898,-0.5127,1.5386,0.5127,9.231,
-31.2822,-7.1797,-7.1797,-21.5386,248.7178,17.9487,5.1279,6.1538,-5.1284,0,0,1.0254,-1.0259,8.2051,
-35.6411,-13.0767,-12.564,-23.3335,244.8716,11.0259,4.3589,1.7949,-7.436,-1.7949,-4.3589,6.9233,2.3076,2.3076,
-30.5129,-9.4871,-8.4617,-19.2307,259.8716,24.8718,6.4104,10.0002,-9.9998,0.25659,-10.5129,18.718,-0.25659,12.5642,
-23.8462,-3.8462,-3.8462,-16.667,274.8716,39.7437,3.8462,17.6919,-15.6411,8.4614,-11.5386,32.0513,-5.8975,24.8716,
-28.718,-12.8206,-7.1794,-22.5642,266.1536,33.3333,1.0256,6.1536,-13.3333,8.2048,-8.718,30.2561,-1.0256,18.4617,
-34.3589,-13.333,-12.8203,-22.0513,258.9746,29.231,-2.0513,3.0771,-11.7944,7.1797,-7.6919,21.0259,2.0513,18.4619,
-35.1282,-9.4871,-12.5642,-21.7947,257.1794,30.5129,0.25659,5.8977,-11.5383,0.76929,-6.4104,11.0256,-0.25659,17.1794,
-33.333,-7.1792,-8.7178,-22.564,258.4614,32.8208,5.1284,7.1797,-9.7437,-4.1025,-5.1279,9.231,4.1025,11.2822,
-29.2307,-5.6409,-7.6921,-21.0256,264.6155,31.282,3.5896,9.7434,-9.2307,-3.5896,-6.6667,8.2053,6.1541,13.8464,
-24.1023,-9.2307,-3.5896,-19.9998,263.0769,25.6414,5.6414,6.6667,-6.1536,-3.5896,-7.1794,9.7439,3.5896,20.0002,
-25.8975,-10,-7.436,-18.7178,256.6665,32.0513,3.3335,5.8975,-6.9229,-0.25635,-7.436,20.769,0.25635,22.3076,
-27.9485,-10.5129,-14.1023,-21.282,253.5896,35.6409,0.76929,4.3591,-7.9485,2.3079,-9.4871,19.7434,-0.76929,17.1794,
-21.5386,-7.6924,-7.1792,-18.4614,257.436,30.7695,5.6411,7.1797,-4.6152,2.0513,-8.2051,12.3076,-2.0513,21.5386,
-24.8718,-5.3845,-6.4099,-17.1794,253.5901,28.4617,6.9231,12.0515,-4.8718,-0.76929,-6.4099,8.4617,0.76929,21.7952,
-25.6414,-6.1541,-7.1794,-18.9744,249.7434,27.1794,5.6409,10.7693,-5.6414,-1.0256,-6.6667,8.2048,1.0256,19.9998,
-26.1541,-7.1794,-7.6921,-20.5129,246.1536,26.1536,4.6155,9.7434,-5.6409,-1.0256,-6.6667,7.6921,1.0256,18.4617,
-26.9231,-7.9485,-8.4612,-22.3074,242.3079,24.8718,2.8206,8.4617,-6.4099,-1.282,-7.4358,7.4363,1.282,16.6667,
-27.1797,-8.7178,-8.7178,-23.5898,238.9741,24.1025,2.0513,7.6924,-6.1538,-1.5386,-7.1797,7.6924,1.5386,15.3848,
-27.436,-8.9741,-8.9741,-24.8716,235.6411,23.3335,1.2822,6.9233,-6.4102,-1.2822,-6.9229,7.9487,2.3076,14.1025,
-27.436,-9.4873,-8.9741,-25.8975,232.564,22.8203,0.76904,6.4102,-5.8975,-0.76904,-6.4102,7.9487,2.8203,13.0771,
-27.436,-8.9746,-8.9746,-26.9233,229.4873,22.3076,-0.25635,6.4102,-4.3589,0.25635,-5.3848,9.4873,4.8716,12.0513,
-30,-10.5127,-9.4873,-22.3076,226.4102,28.4614,-2.3076,11.0259,-0.76904,0.76904,-2.3076,12.0513,8.4614,18.7178,
-34.1025,-15.6411,-8.4614,-23.3335,219.7437,22.3076,-0.25635,4.3589,-1.2822,0.25635,-3.3335,8.9746,1.7949,7.9487,
-34.3591,-9.7439,-10.7693,-27.1794,225.1282,21.5383,1.0256,4.615,-6.1541,2.5637,-3.0769,8.718,-1.0256,4.1023,
-36.6667,-8.9741,-13.5898,-26.9229,223.3335,29.4873,-0.25635,6.9229,-3.8462,0.25635,-1.7949,7.436,5.8975,8.9746,
-42.0513,-11.2822,-12.3076,-18.9746,216.9229,34.8716,-2.564,6.6665,-6.6665,2.564,-6.1538,11.2822,4.1025,13.3335,
-46.1536,-11.7947,-10.2561,-17.4358,208.2053,28.2053,-1.0256,4.6155,-10.2561,1.5388,-8.7175,7.6926,1.0256,10.2566,
-42.564,-10.2563,-9.2305,-22.564,202.0513,23.5898,4.1025,5.6411,-1.5386,-3.5898,-0.5127,0.5127,9.7437,8.2051,
-44.8718,-8.9744,-15.1282,-25.3845,195.1282,29.4871,-0.76929,9.9998,-1.282,-2.8206,0.76929,5.8972,9.9998,11.5383,
-47.9485,-13.5896,-14.1023,-26.4099,192.0515,32.0515,0.76929,4.8718,-5.3845,-1.282,-0.76929,8.9744,4.8718,10.0002,
-43.0769,-13.3335,-10.2563,-22.0513,204.6152,34.3589,6.1538,2.0513,-7.1797,-2.0513,-3.5898,7.6924,2.0513,8.2051,
-43.5898,-9.2307,-16.4104,-21.5383,207.1794,38.4617,5.1282,4.6155,-6.1541,-1.5383,-6.6667,7.6921,1.5383,6.6667,
-51.0256,-12.0515,-17.1794,-28.9744,199.2307,35.6409,1.282,3.8459,-7.4358,-1.282,-4.3591,8.9744,2.8206,11.0256,
-48.718,-9.7437,-15.8975,-25.6411,209.231,37.436,-0.5127,5.1284,-13.3335,0.5127,-4.6152,14.3589,1.5386,19.4873,
-40.5127,-9.7437,-17.436,-21.5386,216.4102,35.8975,4.6157,4.1025,-8.7178,-2.0513,-7.6924,9.231,2.0513,13.3335,
-38.2051,-11.0256,-13.5896,-23.3333,211.0256,35.6414,4.8718,6.9231,-4.8718,-4.8718,-6.4099,4.8718,5.8977,7.949,
-39.4873,-7.6921,-8.718,-21.0256,203.0769,39.4871,1.5383,8.2048,-8.2053,-1.5383,-5.1282,9.7434,8.2048,10.2566,
-36.6667,-10.0002,-8.9744,-19.2307,197.6921,35.1282,3.3333,1.282,-6.9231,-1.282,-7.949,9.9998,5.3845,8.9744,
-30.7693,-6.1536,-8.718,-16.4104,207.6926,36.9231,4.1028,5.1282,-8.2048,-0.51294,-9.2307,12.3079,0.51294,15.3845,
-28.4612,-3.3333,-3.8459,-15.6409,215.1282,39.7439,4.8718,8.4617,-10.5125,-1.282,-8.4612,12.0515,1.282,13.5901,
-28.4617,-5.3845,-3.3333,-18.718,204.3591,37.6921,4.3591,6.4104,-9.4871,-4.3591,-6.4104,4.3591,3.3333,4.8718,
-30.0002,-3.8464,-6.9231,-19.2307,197.1794,34.6155,7.9485,10.5125,-5.3845,-5.8977,1.282,-1.282,7.4358,10.5125,
-33.8462,-4.6152,-5.1284,-22.564,195.8975,30.2563,14.3589,10.769,-2.0513,-10.2563,2.0513,-4.1025,11.2822,13.3335,
-33.0769,-0.76929,-3.3333,-20.7693,182.8206,32.5642,11.0256,11.0256,-0.76929,-4.3586,-1.7947,0.76929,10.5129,9.4871,
