"AF3","AF4","F3","F4","F7","F8","FC5","FC6","O1","O2","P7","P8","T7","T8",
13.0771,-2.8203,4.3589,-3.8462,17.1797,-5.3848,-10.5127,-3.8462,2.8203,18.7178,-20.2563,15.1284,-3.8462,25.3848,
9.7437,-2.564,-1.5386,-7.1792,9.7437,-3.0767,-7.1792,-3.5898,5.1284,16.4102,-15.8975,12.8208,1.5386,30.2563,
11.5381,0.25635,-1.2822,-8.4619,-0.76953,-0.25635,-2.3076,-2.8208,9.4868,16.1538,-12.0513,14.1025,6.4102,28.9741,
5.8975,-0.76904,-4.3589,-7.436,0.25635,-0.25635,-4.8721,-2.3076,8.4614,16.6665,-16.1538,16.6665,2.8203,20.769,
2.051,-4.6155,-1.0256,-10.2566,1.0256,-2.5642,-2.0515,-5.1282,10.2561,13.3333,-13.8464,9.2307,5.6409,15.3845,
1.0256,-6.6667,-0.51294,-10.7693,0.51294,-2.051,-3.5896,-5.1282,6.1541,12.8206,-11.282,1.5383,5.6409,21.0256,
3.8462,-4.3589,0.76904,-7.9487,0.76904,-3.3335,-0.76904,-0.76904,8.9741,12.564,-8.9746,-3.3335,8.4614,22.8203,
8.2051,-5.6411,1.5386,-12.3076,3.0767,-6.667,-1.5386,-1.5386,7.6924,8.7178,-15.3848,-3.0771,6.1538,17.436,
13.0769,-5.3845,1.282,-10.5129,10.5125,-3.3333,-5.8977,-3.8464,2.3074,11.0256,-21.7952,4.8718,-1.282,21.7947,
14.1023,-5.8977,6.9231,-5.3845,10.5129,-4.8718,-3.3333,-6.4104,3.3333,13.0769,-22.8206,6.4104,-4.8718,22.3074,
13.5898,-2.3076,6.4102,-3.8462,12.0513,-3.8462,-2.8208,-0.25635,0.25635,16.1538,-24.3589,15.1279,-4.3589,24.3589,
13.5896,-1.282,1.282,-5.3845,11.0256,-4.3591,-2.3079,-2.3079,1.282,17.6921,-22.3079,20.2566,-2.3079,23.3333,
12.051,-5.3845,0.76929,-6.4104,7.4358,-6.4104,-0.76929,-11.5383,3.8459,16.6667,-18.718,13.0769,-4.8718,21.282,
10.769,-5.1284,2.0513,-7.6924,9.7437,-4.6152,0.5127,-7.1797,-0.5127,13.3335,-16.9233,7.1797,-6.1538,27.6924,
12.8208,-7.1792,3.0771,-9.7437,9.7437,-5.1279,1.5386,-7.1792,-1.5386,4.1025,-20,2.564,-4.6152,25.1284,
14.1025,-4.8721,1.7949,-6.9233,13.5898,1.7949,-4.3589,-5.8975,-1.7949,8.4614,-23.3335,10,-4.8721,21.7949,
8.7183,-2.564,1.5386,-10.2563,11.2822,3.0771,-5.1279,-4.1025,-1.5386,12.8208,-21.5386,8.2051,-3.5898,22.564,
10.5127,-3.3335,2.8203,-10,8.4614,-0.25635,0.25635,-5.8975,1.2822,7.9487,-17.1797,-0.76904,-0.25635,23.8462,
13.3335,0,-3.0771,-4.6152,11.2822,9.7437,-3.0771,-3.0771,0,5.6411,-17.9487,3.5898,-1.0259,25.6411,
10,-0.25635,0.25635,-5.8975,8.4614,12.0513,-4.8716,-3.8462,-1.2822,3.8462,-21.2822,7.436,-2.3076,22.3076,
7.1794,-3.0769,3.0769,-7.1794,10.7693,8.718,-6.6667,-4.1028,-3.5896,7.1794,-21.5383,9.7434,-7.1794,24.6155,
7.1794,-3.0769,0.51294,-6.1536,10.7693,10.2566,-3.5896,-4.1023,-0.51294,13.3333,-13.3333,12.3079,-6.1536,25.6409,
4.8721,-6.4102,-2.3076,-11.0254,1.2822,6.4106,0.25635,-6.9229,-0.25635,6.9233,-13.5894,3.3335,-6.4102,19.231,
5.8975,-2.8208,-0.25635,-7.9487,10,10,0.25635,-1.2822,-3.3335,8.9741,-17.6924,10.5127,-6.4102,26.4102,
-0.25659,-7.4358,1.282,-12.5642,3.8464,6.9231,0.25659,-6.9231,-2.8206,8.9744,-21.7947,15.6409,-4.3591,19.2307,
0,-6.1538,1.5386,-18.9746,0,7.1797,2.0513,-6.6665,-1.5386,9.231,-21.5386,17.9487,-1.5386,16.9229,
3.8462,-2.3076,-4.3589,-19.7437,13.5898,8.4614,2.3076,-4.8716,-2.8203,9.4873,-20.769,18.2051,-4.3589,27.9487,
3.3333,-8.9744,-3.8464,-17.6926,16.6663,8.9744,2.8206,-8.4617,-2.8206,7.4358,-20.2566,18.7175,-9.4875,25.3845,
0.25659,-7.4358,-0.25659,-11.0256,8.4617,15.1282,0.25659,-2.8206,-3.8459,13.0769,-19.2307,24.8718,-10.5129,19.7434,
-3.3335,-4.3589,1.7949,-12.0513,3.8462,8.9741,2.3076,-1.7949,-2.8208,14.1025,-19.7437,20.2563,-6.4102,16.1538,
-2.3079,-5.3845,1.7947,-15.6409,15.6409,8.4617,5.3845,-1.7947,-5.8972,14.1028,-18.2053,17.1794,-6.9231,20.7693,
-3.0767,-7.6924,-0.5127,-15.3843,18.4614,16.4102,2.564,0.5127,-6.6665,14.3589,-16.9229,20,-8.2051,25.1284,
-6.6665,-8.2051,0.5127,-17.4355,4.6157,14.8721,1.5386,-4.1025,-0.51269,10.7695,-21.0254,21.5386,-6.1538,22.5645,
-9.2307,-5.6409,-1.0256,-15.3845,4.1028,15.3845,2.0515,-3.0769,1.0256,14.3591,-22.5642,25.1282,-4.6155,24.6155,
-9.4873,-8.9741,-2.8203,-17.1797,11.0259,13.0771,5.8975,-3.3335,2.8203,13.0771,-13.5898,15.1284,-3.3335,22.8203,
-4.8716,-4.8716,-2.3076,-15.6411,14.6152,10.5127,6.4102,-4.8716,2.3076,13.5898,-10,13.0771,-2.3076,21.7949,
-3.3333,-0.76929,-1.7947,-10.0002,16.6667,16.6667,5.8972,-2.3079,0.25659,19.2307,-15.1282,24.8718,-0.25659,25.8972,
-7.6924,-7.1792,-1.0254,-16.9229,11.2822,11.2822,6.667,-4.6152,0.51269,16.4102,-15.3848,23.0771,-0.5127,22.0513,
-6.9229,-4.3589,-4.3589,-21.7949,10.5127,10,6.4102,0.76904,-0.76904,17.6924,-11.0259,22.8203,-1.7949,27.436,
-5.3845,-6.4104,-8.9744,-25.8972,9.4871,11.0256,8.4617,-0.76929,0.76929,16.1541,-11.5383,18.718,-1.7947,26.4104,
-3.3333,-11.0256,-5.3845,-27.949,15.1282,8.9744,6.9231,-8.9744,3.3333,12.051,-13.0769,14.6155,-4.8718,16.1536,
-0.76929,-7.9485,-0.76929,-23.3333,22.3079,11.5383,3.3333,-4.8718,0.76929,12.5642,-17.1794,18.2053,-7.4358,20.7693,
-0.5127,-9.231,0.5127,-24.6152,9.7437,7.6924,6.1538,-7.6924,-1.0259,8.2051,-22.564,11.2822,-5.1284,23.5898,
0.5127,-4.6152,-3.0771,-24.6152,13.3335,9.7437,7.1792,-7.1797,-0.5127,11.2822,-17.9487,6.1538,-1.5386,17.9487,
0.25635,-4.3589,-6.9233,-26.4102,23.8462,8.9741,6.9229,-4.8721,-0.25635,11.5386,-15.1284,4.8716,-1.7949,6.4102,
0.76929,-10.5125,-4.3586,-26.4099,22.3079,4.3591,8.4617,-8.9744,-0.76929,3.3337,-21.282,4.8718,-6.9231,12.0515,
4.1028,-8.718,-6.1536,-20.5129,22.5642,7.1794,5.1282,-10.7693,-3.0769,3.0769,-22.051,7.6926,-8.2048,21.5383,
5.6409,-6.6667,-5.1282,-18.4617,19.9998,3.5896,3.0769,-11.282,-3.0769,6.6667,-20.0002,7.6921,-6.6667,8.2048,
5.1282,-6.6667,-2.5642,-13.3333,27.6921,8.718,2.5642,-4.6155,-7.6921,12.8206,-25.1282,21.5383,-11.7947,18.4617,
5.6411,-7.6924,-4.1025,-9.7437,33.3335,16.4102,3.5898,-3.5898,-8.2051,12.3076,-25.6411,28.2051,-13.8462,33.4617,
5.385,-6.9231,-4.8718,-14.615,23.3337,16.1541,2.8206,-11.0256,-2.8206,6.4104,-20.2561,17.6926,-12.051,22.8206,
1.5383,-2.0515,-7.1794,-15.8977,21.0256,18.4617,2.5642,-11.7947,-1.5383,7.1794,-17.949,13.8459,-10.7693,16.4104,
0.76904,-3.8462,-5.8975,-14.6152,20.2563,17.1797,10.5127,-8.4614,-0.76904,7.9487,-19.231,16.6665,-8.4614,19.7437,
0.76929,-6.4104,-8.4617,-14.6155,19.2307,17.6921,6.9231,-0.76929,-5.3845,11.5383,-23.3333,25.3845,-13.0769,29.4871,
0,-0.5127,-8.7178,-15.3848,24.1025,22.0513,7.6924,0,-1.0254,19.4873,-16.4102,32.3076,-9.2305,38.9746,
-3.8462,-4.3589,-8.9746,-22.3076,24.3589,16.6665,12.0513,-6.4102,3.8462,16.1538,-13.5898,23.333,-3.8462,27.9487,
0.76929,-4.3586,-9.9998,-18.718,33.0769,19.7439,12.5642,-0.76929,-0.76929,15.6414,-16.1536,20.2566,-4.3586,26.4104,
3.5898,-4.6157,-8.7183,-18.4614,35.8975,19.4868,12.8203,-3.5898,-5.1284,11.2817,-20,18.9741,-7.6924,32.3076,
3.3333,-3.3333,-6.4104,-16.6667,37.6921,18.2053,11.5383,-4.3591,-5.3845,11.5383,-21.7947,23.8464,-7.4358,35.1282,
0,-3.0767,-6.6665,-14.3589,42.5645,19.4873,12.8208,0,-5.6406,10.2568,-23.5894,24.103,-9.2305,31.2822,
2.0513,-5.6411,-7.6924,-13.8462,44.6152,18.9741,15.3843,-2.0513,-6.1538,4.1025,-22.5645,16.4102,-8.2051,25.1279,
3.3333,-5.8972,-14.6155,-14.1023,38.2053,19.7434,9.4871,-3.3333,-9.9998,4.8718,-20.7693,17.1794,-7.9485,19.7434,
3.5898,-4.6152,-10.769,-15.3843,35.3848,17.436,12.8208,-5.6411,-3.5898,8.2051,-20,21.0259,-7.6924,17.9487,
3.5898,-4.1025,-3.5898,-12.8203,46.6665,17.9487,15.8975,-4.6152,-3.5898,7.1797,-20.5127,20,-11.2822,26.6665,
2.5642,-5.6409,-4.6155,-11.282,44.1028,18.4617,12.8206,-2.5642,-8.2053,4.6155,-17.9485,17.4358,-11.282,27.6921,
2.0513,-7.1797,-2.0513,-15.8975,34.8716,13.8462,11.7949,-8.2051,-6.6665,3.0771,-22.564,15.8975,-11.7949,15.8975,
2.0513,-2.0513,-3.0771,-16.4106,44.1025,17.4355,10.2563,-6.1543,-9.7437,6.1538,-29.231,17.9487,-14.3594,13.8457,
1.5386,-2.564,-5.1279,-13.8462,41.5386,19.4873,12.8208,0,-7.6924,0,-22.564,6.667,-7.6924,17.9487,
0.25635,-3.3335,-2.3076,-10,36.1538,21.2822,13.5898,2.8203,-0.25635,-2.3076,-17.1797,0.76904,-0.25635,22.3076,
-1.7949,-4.3589,-3.8462,-10,42.3076,21.2817,9.4873,1.7949,-4.3589,4.8716,-21.2822,9.4873,-3.3335,20.2563,
3.0771,-8.7178,-3.0771,-11.7949,46.6665,15.3848,13.3335,-4.1025,-9.7437,3.0771,-21.5386,14.8716,-9.7437,14.8716,
3.5898,-7.1792,-1.0254,-9.7432,49.7437,17.436,13.8462,0,-11.7944,0,-24.1025,18.9746,-11.7944,20.5132,
-3.3333,-8.4617,0.25659,-10.5129,44.8718,17.6921,12.0515,2.3079,-10.5129,-0.25659,-28.9744,12.5642,-7.9485,21.282,
-1.282,-10.0002,1.282,-12.5642,45.8972,15.6409,12.5637,-1.7952,-10.5129,2.8206,-28.4617,11.0256,-9.4875,18.2048,
-0.25635,-6.4102,-1.7949,-12.564,56.1538,18.2051,16.1538,0.25635,-11.5386,7.436,-25.8975,21.2822,-12.564,20.2563,
-2.0518,-4.6157,0,-14.8721,55.3843,18.9741,24.6152,0,-3.5898,10.769,-18.9746,26.1538,-6.1543,21.0254,
-0.25635,-1.7949,-1.7949,-15.1279,54.6157,21.2822,22.3081,0.25635,-3.333,12.5645,-19.2305,25.8975,-5.8975,27.9487,
-1.282,-2.3079,-3.3333,-15.6409,53.0769,19.2307,19.7434,1.282,-6.9231,5.8977,-23.3333,13.0769,-7.4358,22.8206,
-4.3591,-3.3333,0.76929,-16.6667,50.5129,17.6921,23.3333,0.76929,-7.4358,-0.76929,-21.282,4.8718,-4.8718,14.1028,
-4.1025,-3.5898,-2.564,-13.8462,49.7437,21.5386,20.5127,2.564,-9.2305,3.5898,-21.0254,15.3848,-6.6665,26.667,
-1.0256,-5.1282,-3.0769,-15.8977,42.051,19.4871,20.5129,1.0256,-6.6667,11.282,-21.5388,23.0769,-8.718,30.7693,
-2.3076,-2.3076,-2.3076,-17.6924,42.3076,19.7437,18.7178,2.3076,-5.8975,15.6411,-21.2822,23.3335,-7.9487,22.8208,
-6.9229,-5.3848,-3.3335,-19.231,43.3335,20.2563,18.2051,2.3076,-4.3589,11.0259,-18.7178,16.1538,-2.3076,19.7437,
-2.5642,-9.2307,-1.5383,-19.4871,45.1282,21.5383,23.0769,1.5383,-3.5896,9.2307,-18.9744,7.6921,-3.5896,22.0515,
-1.0259,-7.6924,-6.6665,-20,48.2051,21.5386,22.564,1.0259,-10.769,8.2051,-24.6152,4.6152,-14.8716,25.1284,
-0.76929,-3.8464,-1.7952,-19.2307,49.9998,24.8718,25.8972,0.76929,-6.9231,6.9231,-20.2566,8.4612,-11.5388,29.9998,
-5.1282,-7.1794,-0.51294,-21.5383,52.3074,27.6921,20.5129,0.51294,-11.282,8.2048,-22.5642,9.7434,-11.7952,27.1794,
-1.282,-7.9485,-2.3079,-21.282,57.1794,25.3845,22.3079,1.282,-9.4871,6.4104,-23.8459,4.3591,-11.5383,19.7434,
3.0771,-5.1279,-0.5127,-24.1025,57.436,20,28.7183,0,0,0.51269,-15.3848,-4.1025,-4.1025,17.9487,
-1.0254,0,-4.1025,-27.1792,54.8721,24.6157,26.1538,1.0259,0,6.667,-7.6919,0,0,18.9746,
-2.8206,-2.8206,-2.3074,-26.9231,56.6667,26.4104,31.5388,-2.8206,1.282,4.8718,-8.9744,-1.282,1.282,12.0515,
0.76904,-5.3848,-1.2822,-21.2822,66.4102,24.3589,33.5898,-0.25635,0.25635,0.25635,-15.1284,-1.7949,-2.3076,17.6924,
-1.7949,-6.9233,-8.9746,-24.3589,67.436,21.2817,25.8975,2.3076,-5.3848,4.8716,-17.6924,1.7949,-10.5127,22.3076,
0,-4.6152,-7.6924,-25.1279,64.1025,18.9746,26.667,0,-7.1792,7.6924,-18.4614,2.0513,-9.7437,17.436,
1.5386,-2.564,-8.7178,-20.5127,63.0771,22.5645,24.6157,1.5386,-12.8203,0,-25.1279,0,-7.1792,17.9487,
9.231,2.0513,-3.0767,-16.9229,67.6924,26.667,29.7437,3.5898,-7.1792,-3.5898,-21.0254,-5.6411,-2.0513,19.4873,
14.1025,2.3076,-0.25635,-17.6924,72.564,26.4102,28.4614,0.25635,-11.0259,-3.3335,-23.3335,-6.9233,-8.9746,17.1792,
12.8206,-4.1028,-3.5896,-18.9744,70.2566,30.7693,23.0769,-0.51294,-17.9485,0.51294,-29.2307,3.0769,-11.7947,15.3845,
14.6152,-4.8721,-2.3076,-17.6924,69.4873,30.5127,29.4873,-0.25635,-13.5898,0.25635,-28.4614,5.8975,-6.9233,6.9229,
14.1023,1.7947,-2.8206,-16.6667,76.1536,28.4617,28.9744,-0.25659,-16.1541,-3.8464,-30.0002,0.25659,-11.5383,0.76929,
13.0771,-0.25635,0.25635,-16.1538,71.5386,32.0513,28.4614,1.2822,-12.564,-1.2817,-27.9487,-4.8716,-8.9741,5.8975,
8.9746,-6.4102,-2.8203,-18.2051,58.2051,32.5645,27.436,2.3076,-6.9229,2.3076,-22.3076,-5.8975,-2.3076,3.8462,
8.2051,1.0259,-4.1025,-15.8975,62.0513,29.7437,29.231,8.7183,-6.6665,0,-13.8462,-5.6406,0,-1.0254,
6.1536,1.0256,2.5637,-16.9231,63.5896,25.6409,31.7947,4.6155,-9.2307,-7.1794,-16.9231,-17.4363,-4.6155,-1.0256,
8.2048,-2.5642,5.1282,-15.3845,66.1536,33.8459,30.7693,2.5642,-10.7693,-4.6155,-26.6667,-20.0002,-8.2053,7.1794,
13.3335,0.5127,7.1797,-10.769,67.1797,32.3076,31.7949,3.0767,-8.2051,-4.1025,-24.6152,-16.9233,-3.0771,-0.5127,
13.3333,3.5896,8.718,-9.2307,62.051,24.1028,28.2053,3.0769,-10.2566,-5.1282,-22.0515,-17.4358,-3.0769,-10.2566,
19.2305,1.7949,6.4102,-7.9487,58.7178,27.436,26.4102,6.4102,-10.5127,-1.7949,-24.3589,-14.1025,-2.8208,-2.8208,
34.2305,-0.25635,10,-6.9229,54.6152,24.3589,31.0259,6.4102,-4.8716,-2.8203,-22.3076,-13.0767,0.25635,-2.3076,
49.2305,2.8206,10.0002,-7.9485,61.282,19.7434,25.8977,3.3333,-13.0769,-2.8206,-25.3845,-14.1023,-6.4104,-4.8718,
64.2305,5.1282,15.3845,-7.6921,74.8718,25.1282,27.6921,0.51294,-14.8718,-0.51294,-24.1028,-9.7434,-7.6921,-0.51294,
79.2305,0.25635,15.6411,-10.5127,77.1797,24.8721,25.3848,0.76953,-14.6152,-2.8203,-22.3076,-3.8462,-13.0767,-0.25635,
80.2563,-4.3589,5.8975,-14.1025,70.5127,24.3589,14.1025,2.3076,-20.2563,-2.3076,-27.9487,-2.3076,-20.769,5.8975,
83.3333,-4.8718,11.0256,-11.5383,65.3845,26.9231,20.7693,-1.7947,-13.0769,1.7947,-28.4617,-1.7947,-11.5383,12.5642,
80.5127,-6.6665,9.231,-13.3335,65.1284,26.1538,18.4614,-4.1025,-14.8716,-1.5386,-28.2051,1.5386,-12.8203,2.564,
79.7437,-1.2822,7.436,-12.564,72.0513,32.564,21.2822,4.3589,-11.0259,0.25635,-17.6924,-0.25635,-10,-1.7949,
81.7949,-1.7949,11.5386,-12.564,68.4614,33.0771,23.8462,4.3589,-5.3848,-1.2822,-16.1538,-8.4614,-4.8716,1.2822,
79.231,-2.8203,12.0513,-10,64.3594,35.6411,18.7183,2.3076,-9.4868,-2.3076,-21.7949,-3.8462,-7.4355,7.436,
75.6406,-3.8462,10,-16.1538,62.3076,35.6406,20.769,3.8462,-9.4873,-7.9487,-19.231,-6.9233,-8.9746,4.3589,
76.1538,-3.8462,8.4614,-16.6665,63.3335,34.6152,18.2051,8.9746,-10,-8.4614,-18.2051,-7.9487,-8.9741,3.8462,
72.5642,-5.8972,7.949,-9.4871,60.7693,30.5129,11.5383,5.3845,-12.051,-7.9485,-23.3333,-5.3845,-9.9998,6.9231,
71.5383,-3.3333,15.1282,-8.9744,64.3591,33.0769,21.282,3.3333,-5.8972,-8.4617,-17.1794,-7.4358,-5.3845,8.9744,
64.6152,-4.1025,8.2051,-22.0513,65.1284,35.3848,21.5386,4.6152,-9.7437,-10.769,-13.3335,-15.3848,-6.1538,4.1025,
66.6667,-1.0256,10.2561,-23.0769,63.0769,35.3845,21.5383,6.1536,-5.6414,-5.6414,-11.282,-12.3079,-2.5642,1.0256,
66.9231,-0.25659,13.5896,-16.6667,61.7947,37.1794,18.2048,2.8206,-7.949,-3.3333,-18.2053,-1.7952,-10.0002,0.25659,
64.6152,-5.6411,10.769,-16.9233,58.9741,38.4614,17.9487,1.5381,-11.7949,-5.6411,-21.5386,0,-16.4106,0,
66.9233,-1.7949,15.6411,-18.7178,57.1797,36.667,23.3335,4.3594,-4.8716,-6.9229,-19.2305,-4.3589,-6.9229,1.7949,
58.4614,0,6.6665,-24.1025,57.436,31.2817,13.8462,0.5127,-14.8721,-11.2822,-29.231,-7.1797,-13.3335,0,
58.2051,0.25635,10,-19.231,58.7178,33.5894,20.2563,1.7949,-12.5645,-7.9487,-21.2822,-4.8721,-13.5898,-0.25635,
59.4871,-1.0256,13.8464,-14.8718,52.3079,37.4358,22.0515,4.1028,-6.1536,-7.1794,-13.8459,-8.718,-6.6667,1.0256,
57.1794,-2.8206,8.4617,-17.1794,52.5642,38.718,15.6409,4.8718,-5.8972,-7.4358,-15.1282,-5.8972,-2.8206,2.8206,
58.7183,-3.8462,10.5127,-16.6665,55.6411,33.0771,19.7437,4.8721,-6.4102,-9.4873,-16.1538,-2.3076,-5.8975,2.3076,
55.1284,-2.3076,7.9487,-15.1279,56.667,32.564,16.667,6.9233,-13.0767,-11.5386,-17.6924,-4.3589,-13.0767,2.3076,
54.1028,-2.3079,10.5129,-14.6155,54.6155,36.6667,18.2053,5.8977,-8.9744,-11.0256,-12.051,-5.8972,-8.4617,2.3079,
53.3333,-3.5896,11.282,-15.3845,52.8206,34.8718,19.4871,5.1282,-9.2307,-13.8459,-10.2566,-8.2053,-6.6667,3.5896,
46.667,-1.5386,4.1025,-19.4873,54.3589,33.8462,17.436,8.2051,-16.4102,-16.9229,-12.3076,-11.7949,-6.6665,1.5386,
45.3845,-0.25659,5.8977,-22.3079,50.0002,34.6155,20.7693,5.8977,-12.051,-15.6409,-11.0256,-15.1282,0.25659,-4.8718,
45.6411,0,5.6411,-18.4614,47.1797,37.9487,17.9487,8.2051,-7.6924,-10.2563,-8.2051,-13.3335,0,-3.0767,
40.0002,-1.0256,5.6409,-17.9485,48.718,36.9231,17.949,10.7693,-5.6409,-10.2561,-2.051,-14.3591,1.0256,-8.2048,
42.8206,0.25659,11.0256,-17.1794,58.718,38.2053,20.2566,10.5129,-6.4104,-9.9998,-0.76929,-8.4617,-0.25659,-7.4358,
41.7947,0.25659,9.4871,-17.6921,57.6921,36.6667,20.2566,10.0002,-6.4104,-9.9998,-0.76929,-8.9744,-0.25659,-6.9231,
40.7693,0.25659,8.4617,-18.718,56.1541,35.6409,19.7434,9.4871,-6.4104,-9.9998,-0.76929,-9.4871,-0.25659,-6.4104,
39.4873,0,7.6924,-18.9741,54.8721,34.3594,20,9.231,-6.1538,-9.7432,-0.5127,-9.7432,0,-5.1279,
38.9746,0,6.667,-19.4868,53.3335,32.8208,19.4873,9.231,-6.1538,-9.7432,-0.5127,-10.2563,0,-4.6152,
37.6924,0.25635,5.3848,-20.2563,52.0513,31.0259,19.231,8.4619,-5.3843,-8.9741,-0.25635,-10.5127,-0.25635,-3.333,
31.2822,0,0.5127,-21.5386,49.7437,33.8462,12.8208,9.7437,-9.7437,-9.7437,-4.6152,-6.6665,-1.5386,0,
28.718,-5.6409,3.0769,-26.1536,45.1282,32.8206,12.8206,6.6667,-8.718,-12.8206,-6.1536,-8.718,-3.0769,3.5896,
28.9746,-2.3076,2.3076,-24.8716,44.3589,36.6665,13.0771,8.9746,-11.0254,-8.9741,-5.3848,-2.8203,-3.3335,10,
25.8975,0.25635,-1.2817,-23.8462,40.7695,39.7437,11.0259,10,-14.6152,-7.4355,-5.8975,-3.333,-0.25635,5.8975,
26.1538,-2.0513,4.1025,-27.6924,42.564,40.5127,13.8462,8.2051,-8.7178,-9.7437,-5.1279,-9.7437,2.0513,-3.0767,
27.9485,-0.76929,6.9231,-24.8718,46.4104,40.7693,15.1282,14.1028,-5.8972,-7.4358,-2.8206,-7.4358,0.76929,-4.8718,
23.8462,-2.3076,6.4102,-22.8203,34.6152,36.1538,12.564,11.5386,-5.8975,-12.564,-1.7949,-12.564,0.76904,-0.76904,
17.6921,-4.3591,2.8206,-29.4871,22.8206,33.5896,2.3079,4.3591,-11.0256,-13.0769,-6.9231,-16.6667,-2.3079,6.4104,
14.6152,-3.8462,0.25635,-35.1284,23.333,32.0513,1.2817,5.8975,-10.5127,-6.4102,-8.4614,-10,-0.25635,2.8203,
14.6152,-3.8462,2.3076,-33.5898,25.3843,32.0513,7.436,8.9741,-6.9233,-2.8208,-3.8462,-3.8462,2.8203,-2.3076,
14.1025,-3.3335,0.25635,-28.9746,26.4102,37.1792,2.8203,8.4614,-10.5127,-1.2822,-4.8721,-0.25635,-2.3076,6.9229,
10.5127,-4.8716,2.8203,-30,16.1538,28.9746,2.3076,5.3848,-7.9487,-6.9229,-3.3335,-12.564,-2.3076,7.9487,
5.8972,-6.9231,0.76929,-35.1282,6.4104,20.2566,3.3333,7.949,-5.3845,-9.4871,-0.76929,-15.1282,-0.76929,2.8206,
2.0513,-10.2563,-6.1538,-36.9231,6.6665,24.6152,2.564,4.6152,-7.6924,-3.5898,-6.6665,-0.12817,-2.0513,3.5898,
4.3591,-10.5129,-0.76929,-34.1023,10.5129,25.3845,3.8464,0.76929,-9.4871,-0.76929,-9.9998,8.9744,-0.76929,4.8718,
2.8208,-8.9741,-0.25635,-35.1282,13.0771,23.8462,0.25635,6.4106,-13.5894,-5.3843,-7.4355,1.2822,-1.2817,6.9233,
-2.0513,-14.3589,-2.0513,-37.4358,2.0513,24.6152,0,5.6411,-7.1792,-4.6152,0,3.5898,1.0259,10.2563,
-0.51294,-14.8718,-1.0256,-29.2307,-1.5383,27.1794,-2.051,6.1541,-4.6155,5.6409,1.5383,9.2307,0.51294,17.4358,
-0.25635,-9.4873,-3.333,-26.9229,5.8975,25.3848,-1.2817,8.9746,-4.8716,4.3589,3.3335,-2.8203,0.25635,18.7183,
-4.8716,-10.5127,-1.2822,-31.5386,5.3848,17.6924,5.3848,6.4102,-2.3076,-6.9229,4.8716,-14.1025,3.8462,3.7183,
-8.9744,-9.4875,1.282,-25.3848,3.3333,21.282,4.8718,12.051,-1.7952,-1.282,8.9744,-3.8464,6.9231,-4.8718,
-12.5645,-8.9746,-0.25635,-25.8977,-7.436,20.2563,0.25635,9.4868,1.2817,3.333,12.0513,-1.2822,10.5127,-0.76953,
-12.3079,-11.282,-1.0256,-30.7693,-10.2566,16.9231,-1.5383,6.6667,1.0256,0.51294,6.6667,-0.51294,9.7434,1.0256,
-9.7437,-12.3076,3.0771,-29.2307,-0.5127,21.0259,-0.5127,11.2822,-1.0254,0,8.2051,0,6.6665,7.1797,
-9.231,-15.3848,5.1279,-30.7693,-2.0513,15.3848,0.5127,9.7437,-0.5127,-2.564,11.7949,-8.7178,2.0513,12.3076,
-7.4358,-7.9485,0.76929,-27.9485,-1.7947,15.6414,-1.7947,8.4617,-2.3074,6.9231,6.9231,5.8977,-0.76929,18.2053,
-10.5127,-9.4873,-1.7949,-29.4873,-5.3848,16.1538,-3.3335,1.7949,-3.3335,11.0254,4.3589,13.0771,1.7949,7.436,
-8.9741,-10,5.3848,-30,-4.3589,17.1797,-0.76904,5.3848,0.25635,4.8721,8.9746,-1.2817,9.4873,-0.25635,
-3.0771,-6.667,7.6919,-25.6414,0,17.9487,0,12.8203,-2.0513,-1.5386,3.0767,-8.7183,8.2051,6.6665,
0.25635,-8.9741,10,-25.3848,-0.76904,15.6411,0.25635,5.3848,-3.3335,-3.3335,-0.25635,-6.9229,4.3589,12.0513,
-5.1282,-10.7693,3.0769,-27.1794,2.0515,15.8977,-8.2048,2.0515,-9.7434,-1.0256,4.6155,-2.051,1.0256,10.2566,
-8.718,-12.3074,-3.0769,-27.6921,1.5383,11.7952,-8.2048,8.718,-12.8206,0.51294,5.1282,1.5383,-0.51294,4.1028,
-5.6409,-10.7693,0.51294,-26.6667,1.0256,16.9231,-4.1028,8.2053,-6.6667,10.2566,-0.51294,11.282,-3.0769,11.282,
-10.7693,-8.718,-2.051,-25.6409,3.5896,26.6667,-8.2048,6.1541,-6.1536,15.3845,-1.0256,15.8977,1.0256,17.949,
-12.8206,-9.7439,1.0256,-27.1794,5.1282,18.9744,-5.1282,9.2307,-5.6409,0.38452,3.0769,0.89771,7.6921,7.1794,
-8.2053,-4.6155,4.1023,-25.6414,10.2561,17.4358,-3.0769,7.1794,-6.1541,-7.1794,3.5896,-11.7952,3.0769,7.6921,
-12.5645,-5.8975,0.25635,-23.3335,8.4614,21.7949,-5.8975,-0.25635,-6.9233,3.8462,2.3076,1.2817,-2.8208,12.0513,
-17.436,-14.3589,-3.5898,-17.9487,4.6152,21.0254,-6.667,2.0513,-7.6924,10.2563,3.0767,13.8462,-2.0513,10.2563,
-18.718,-15.1282,-7.4358,-18.2053,6.4099,18.2048,-9.4871,3.8459,-13.5901,4.8718,0.76929,5.3845,-0.76929,12.051,
-11.7947,-8.718,-1.0256,-24.6155,11.7952,16.4104,-0.51294,1.5383,-5.1282,0.51294,5.1282,-6.1536,7.6921,13.8464,
-14.8716,-11.2822,-4.6152,-31.7949,12.8208,17.9487,-2.564,3.0771,-4.6152,2.564,7.6924,-3.0767,3.5898,9.7437,
-18.718,-16.1541,-10.5129,-32.0515,11.0256,21.7947,-8.4617,1.7947,-7.4358,6.9231,7.9485,1.282,-1.282,8.4617,
-8.7178,-9.231,-3.5898,-28.7178,14.3589,20,0,0,-3.0771,5.6411,10.769,-2.564,6.1538,18.9741,
-10.2563,-7.6924,-5.1284,-25.6411,18.4614,14.3589,0,2.0513,-3.5898,0,6.6665,-7.6924,4.6152,17.9487,
-18.2053,-13.0769,-4.3591,-21.7947,12.5642,14.6155,-2.8206,4.3591,2.3079,0.25659,8.4617,-7.4358,4.3591,2.9487,
-20.0002,-12.3079,-2.5642,-21.0256,1.0256,14.3591,-7.1794,5.6409,-0.51294,7.1794,10.2561,-0.51294,5.1282,0.51294,
-17.1794,-10.0002,-7.4358,-23.3333,-2.8206,12.5642,-7.4358,3.8459,-7.949,12.5642,3.8459,7.9485,2.8206,15.5129,
-13.8464,-10.7693,-7.1794,-27.1794,-1.0256,11.7947,-2.5642,2.051,-6.1541,12.8206,1.0256,10.7693,3.0769,19.4871,
-20.7693,-14.6155,-11.5383,-32.051,2.8206,10.0002,-8.4617,2.3079,-10.5129,7.949,-0.76929,5.3845,0.76929,13.0769,
-15.6411,-11.0259,-2.8208,-21.7949,10.5127,13.5898,-1.7949,5.3843,-4.8721,1.7949,4.3589,-7.436,4.3589,13.0767,
-8.9746,-7.436,0.25635,-13.0771,16.1538,14.6152,-0.25635,5.3843,-7.436,-8.9746,1.2817,-20.7695,1.7949,11.5386,
-8.2048,-3.0769,-1.0256,-14.3586,22.5642,15.8977,1.0256,9.2307,-6.1536,-3.0769,5.1282,-15.3845,7.6926,16.9231,
-14.3591,-10.2566,-4.1028,-24.1028,16.9231,10.2566,0.51294,-0.51294,-6.1541,1.5383,6.1536,-12.3079,4.6155,10.2566,
-10.5127,-9.4868,-6.9229,-17.1792,25.3848,17.6924,0.25635,0.76953,-8.4614,8.9746,4.8721,-0.25635,-2.8203,10,
-10.5125,-8.9744,-6.9231,-17.1794,24.3591,15.6414,1.282,4.8718,-7.4358,4.3591,4.3591,-4.8718,-1.282,14.1028,
-14.3589,-8.2051,0,-20,17.9487,10.769,0,3.5898,-5.6411,-4.6152,4.1025,-19.8718,5.1279,11.7949,
-10.5127,-7.436,-0.76904,-14.1025,18.2051,18.2051,0.76904,5.3848,-4.8721,-2.8203,7.436,-23.3335,6.9229,10,
-7.9487,-11.0259,-5.3848,-14.1025,16.1538,14.1025,3.8462,-1.7949,-4.3589,1.7949,9.4868,-19.7437,2.8203,8.9741,
-14.3591,-5.1282,-4.1023,-18.4617,25.1282,11.7947,1.0256,-1.0256,-6.1536,6.6667,4.6155,-11.282,3.0769,14.8718,
-21.7952,-8.9744,-5.3845,-28.4617,24.8718,10.5125,0.76929,-0.76929,-4.8718,4.8718,3.8459,-15.1282,5.3845,14.6155,
-16.6665,-15.6411,-8.4614,-29.4873,18.2051,11.5386,1.7949,-4.3589,-1.7949,7.436,8.9746,-17.6924,2.3076,11.5386,
-14.8718,-11.282,-7.1794,-26.1541,13.3333,11.7947,-2.5642,-0.51294,0.51294,4.6155,10.2561,-21.0256,3.5896,4.6155,
-22.8203,-10.5127,-3.8462,-33.5896,7.436,3.8462,0.76953,-0.25635,1.7949,-8.4614,11.0259,-35.1282,10,0.25635,
-20.2566,-13.0769,-5.8972,-29.4873,19.2307,7.4358,2.8206,0.76929,-6.4104,-0.76929,7.9485,-23.8459,3.3333,15.2563,
-11.282,-13.8459,-2.051,-17.9485,23.0769,16.4104,3.0769,0.51294,-4.6155,14.2307,5.1282,-8.8459,-1.5383,19.4871,
-20.2566,-15.1282,-1.7947,-22.8206,8.0769,10.5129,-2.8206,-4.8718,1.7947,11.0256,6.9231,-3.3333,2.8206,7.9485,
-32.3076,-13.3335,-12.3076,-28.718,1.5386,9.231,-6.1538,-1.5386,2.564,9.231,11.2822,-12.3076,6.1538,12.8203,
-29.2307,-13.8459,-10.2566,-29.2307,16.5386,11.282,-1.5383,-1.5383,1.5383,8.718,9.7434,-18.9744,5.6409,10.7693,
-24.3589,-12.0513,-6.4102,-26.9231,19.7437,15.1284,-2.8203,1.7949,-1.7949,4.3589,6.9233,-17.6924,4.3589,7.9487,
-26.4102,-8.9741,-8.9741,-22.8206,16.1538,16.6665,-1.7949,6.4102,0.25635,-0.25635,11.5386,-17.6924,6.4102,17.6924,
-28.2053,-9.7437,-9.231,-17.436,16.4102,14.8716,0,0,0,-2.0513,9.7437,-21.0259,5.6411,18.9741,
-27.436,-8.9744,-10.0002,-14.6155,18.2053,18.2053,-0.25659,0.25659,-1.7947,4.8718,6.9231,-8.4617,5.3845,17.6921,
-32.5642,-12.564,-10.5127,-24.8716,7.9487,12.564,-0.76904,-1.7949,0.76904,4.8716,7.9487,-4.8716,4.8716,12.564,
-38.4617,-9.7439,-12.3079,-27.1797,3.0769,13.3333,-0.51294,-1.0256,0.51294,8.2048,11.282,-9.7439,4.6155,14.8718,
-46.9233,-12.5642,-18.2053,-27.436,-0.76929,15.6409,0.76929,-1.7952,0.76929,7.9485,13.0769,-15.1282,8.4612,13.5896,
-48.9744,-19.2307,-14.6155,-32.0513,-1.282,12.5642,1.282,-4.3591,3.3333,4.8718,11.0256,-14.6155,9.9998,11.5383,
-43.0769,-14.3591,-11.282,-28.718,7.1794,12.8206,0.51294,-1.0256,-0.51294,7.1794,9.7434,-14.3591,4.1028,18.4617,
-41.5386,-9.231,-12.8208,-25.6411,2.564,10.2563,7.1792,-4.1025,-1.5386,2.564,8.7178,-22.0513,1.5386,9.2305,
-44.3589,-8.9744,-14.1028,-25.3845,-0.25659,12.0515,7.9485,-3.8459,0.76929,1.7947,6.4104,-16.6667,2.3079,0.25659,
-51.5386,-14.1028,-14.6155,-27.949,-5.3845,8.4612,1.282,-0.76929,0.76929,5.8972,6.4099,-14.6155,4.8718,4.3586,
-54.6155,-15.6409,-11.0256,-27.9487,-16.1541,3.8459,0.76929,-0.76929,6.4104,6.4104,12.5642,-14.1028,8.9744,15.1282,
-53.8459,-11.7949,-13.8462,-21.0254,-13.333,11.2822,-2.564,-2.0513,4.1025,10.2563,9.7437,0.89722,2.0513,17.9487,
-49.2307,-9.7437,-8.2051,-14.8716,-6.6665,16.4102,2.0513,0,0,17.9487,5.1284,10.2563,-1.5386,10.2563,
-53.0771,-9.4873,-2.8208,-15.1284,-12.0513,14.1025,4.8716,4.8716,-4.8721,13.5898,2.3076,-2.3076,2.3076,17.6924,
-58.7178,-5.3848,-4.3589,-15.6411,-17.6924,11.5386,6.4102,5.8975,-2.3076,2.3076,5.3848,-15.6411,8.9746,28.4614,
-52.5642,-3.3335,-0.25635,-14.1025,-12.0513,11.0254,10,0.25635,4.8716,-2.8208,8.9741,-22.3076,9.4868,13.4614,
-54.1025,-6.9231,-0.76929,-16.6667,-6.9231,13.5896,4.3591,2.3079,-1.282,3.3333,7.4358,-14.1028,3.8459,0.76929,
-61.282,-12.0515,-2.8206,-19.7434,-12.5642,9.9998,3.3333,1.282,-1.282,5.3845,6.9231,-5.8972,5.3845,9.4871,
-59.4871,-9.7434,-1.0256,-12.3074,-12.3074,10.2566,4.1028,-2.051,1.0256,1.0256,3.0769,-9.7434,4.6155,15.385,
-60,-3.5898,0,-9.231,-6.1538,14.8716,5.1279,3.5898,-1.5386,0,3.0767,-15.3848,4.6152,22.564,
-65.8975,-4.8716,-0.25635,-14.1025,-10.5127,11.0259,8.9746,3.8462,0.25635,-0.76904,6.9233,-15.6411,7.436,21.7949,
-67.436,-6.4104,-6.4104,-12.0515,-12.5642,10.5129,4.3591,2.8206,0.76929,-0.76929,7.9485,-11.5383,2.8206,7.4358,
-64.6157,-7.6926,-8.718,-11.7952,-11.7952,12.8201,6.6663,2.5637,6.6663,-1.0256,12.8201,-15.385,7.1794,1.0256,
-67.1797,-11.2822,-8.7183,-20,-13.3335,10.2563,6.6665,2.0513,4.1025,-2.0513,9.7437,-22.0513,10.769,16.0256,
-72.0513,-13.0767,-14.1025,-23.3333,-11.5386,11.5386,1.7949,4.3589,-0.25635,0.25635,5.8975,-22.3076,9.4873,27.436,
-73.0769,-13.0769,-15.6409,-27.4358,-17.6921,7.4358,2.8206,-0.25659,8.4617,0.25659,10.5129,-23.8462,12.5642,12.436,
-72.3076,-10.2566,-18.9744,-29.2307,-19.9998,3.5896,-0.51294,0.51294,6.1541,5.1282,10.2566,-14.8718,10.7693,4.1028,
-70.2566,-11.7952,-18.4617,-23.5901,-15.385,4.615,-1.0256,3.0769,1.0256,8.2048,5.6409,-11.2825,8.2048,18.4612,
-67.949,-15.6411,-15.1284,-23.8462,-14.1025,4.8716,-0.25635,0.25635,0.25635,2.3076,3.8462,-20.2563,4.8716,21.7949,
-61.2822,-11.5388,-16.6667,-23.8464,-11.0256,7.4358,-1.282,2.3074,1.282,3.8459,7.4358,-17.1794,3.8459,9.9998,
-60.5129,-11.282,-17.949,-22.5642,-11.7952,5.6409,1.5383,1.5383,2.051,2.051,9.2307,-18.4617,8.2048,-1.5383,
-65.1284,-11.7952,-20.0002,-22.0515,-10.7693,8.718,1.0256,2.051,0.51294,-0.51294,6.6667,-22.5642,9.2307,11.7947,
-65.3848,-13.5898,-18.2051,-25.8977,-14.6157,6.4102,-0.25635,0.76904,1.7949,0.25635,6.9229,-20.7695,8.4614,25.8975,
-59.7434,-12.051,-13.0769,-27.9487,-16.6667,3.8464,1.282,-1.282,3.3333,6.4104,10.5129,-15.1282,6.9231,22.8206,
-59.2307,-9.4871,-17.6921,-23.3333,-9.4871,11.0256,-1.282,1.282,2.3079,10.5129,7.949,-7.9485,1.7952,16.1541,
-57.1797,-10.0002,-12.5642,-22.8206,-13.5901,12.051,0.76929,-0.76929,8.9744,8.4612,7.9485,-8.4617,5.3845,11.0256,
-56.6667,-7.9487,-8.9746,-24.3591,-17.1797,10,0.25635,-0.25635,5.3848,9.4873,8.4614,-11.5386,8.9741,14.6152,
-61.0256,-8.718,-13.3333,-27.1797,-15.8977,11.282,-1.5383,1.5383,3.0769,8.718,8.718,-13.3333,7.1794,21.5383,
-59.7437,-10.0002,-8.9744,-26.4104,-18.2053,11.0256,-0.25659,0.25659,7.9485,8.4617,11.0256,-11.0256,5.3845,22.8206,
-60.0002,-10.2566,-8.718,-21.5388,-24.1028,12.8201,-1.0256,1.0256,4.1023,14.3586,9.7434,-5.1282,6.1536,17.4358,
-61.0256,-14.3591,-12.8206,-20.5129,-31.2822,10.2561,1.5383,-1.5383,2.051,10.7693,8.718,-10.7693,5.1282,9.2307,
-53.3335,-11.7952,-12.3079,-17.4358,-23.5896,10.2561,2.5642,0.51294,2.051,8.718,6.1536,-10.2566,-0.51294,23.0769,
-52.5642,-5.8975,-8.4614,-16.1538,-16.1538,11.5386,3.8462,-1.2822,1.2822,16.1538,4.3589,-2.8203,1.7949,31.5386,
-56.1541,-8.4614,-5.8975,-16.667,-20.2563,8.4614,5.8975,-1.7949,1.7949,17.1792,2.3076,-1.7949,4.8716,16.5386,
-54.1028,-9.4873,-11.0259,-14.1025,-17.6924,12.564,2.8203,6.4102,0.25635,11.0254,-0.25635,-3.3335,1.2817,10.5127,
-52.0513,-10.5127,-10.5127,-14.1025,-20.769,10.5127,2.3076,3.3335,2.3076,4.3589,0.25635,-9.4873,-0.25635,19.231,
-50.2563,-5.1282,-7.1794,-11.282,-17.949,9.7434,1.5383,1.0256,0.51294,7.6921,2.5642,-6.1541,-0.51294,24.6155,
-50.5129,-2.3079,-8.4617,-12.5642,-10.5129,14.6155,0.25659,3.3333,-0.25659,8.4617,3.8459,-4.8718,2.3079,18.718,
-52.3079,-5.1282,-8.2053,-18.9744,-13.8464,12.3079,5.6409,-1.0256,5.1282,1.0256,4.6155,-14.8718,7.1794,8.718,
-54.8718,-5.1282,-11.7947,-16.9231,-14.3591,11.7947,3.0769,-2.5642,2.5642,4.6155,3.5896,-16.4104,4.1028,17.4358,
-56.4104,-8.7183,-12.8208,-15.8975,-18.4619,10.2563,2.564,0.5127,0,4.6152,2.564,-16.9233,0,21.5381,
-55.6411,-12.0513,-14.1025,-21.7949,-25.3848,9.4868,1.2817,2.3076,0.25635,2.3076,-0.25635,-15.6411,1.2817,13.5898,
-53.8464,-9.2312,-16.9231,-23.0769,-18.4617,11.282,1.0256,1.0256,1.5383,7.6921,-1.0256,-13.3337,7.6921,16.4099,
-47.6921,-5.1279,-11.2822,-19.4873,-3.4617,11.7949,10.7695,-0.5127,-0.5127,2.0513,0.51269,-17.9487,7.6924,26.1538,
-43.3333,-1.282,-8.9744,-16.6667,11.5383,17.1794,13.0769,7.4358,-5.8972,-5.8972,1.7947,-18.718,1.282,29.9998,
-44.1025,-4.1025,-8.7183,-20,8.2051,16.4102,12.3076,7.1792,-0.51269,-6.6665,0.5127,-29.231,4.1025,14.9998,
-40.2566,-3.3333,-5.8977,-18.718,5.3845,18.2048,12.5642,3.3333,2.8206,-3.3333,-2.8206,-41.2822,5.8972,2.8206,
-34.1025,1.7952,-2.3074,-6.9231,20.3845,27.4358,15.1282,11.0256,-2.3074,-0.76929,-1.7947,-34.6152,0.76929,17.8206,
-30.0002,3.3333,0.76929,-4.3591,28.4617,24.8718,19.7434,10.5129,-5.3845,-0.76929,-3.3333,-24.3591,-2.3079,27.9485,
-27.9487,5.8975,-2.3076,-5.8975,30,25.3848,14.6152,6.9229,-7.9487,2.3076,-10,-20.7695,-5.8975,21.2817,
-24.8716,8.4614,-0.25635,0.25635,40.7695,30.5132,18.7183,8.4614,-0.25635,-2.8203,-5.3843,-31.5383,-1.2817,13.0771,
-29.4873,1.7949,-0.25635,-5.8975,40.769,23.8462,20.2563,4.3589,-1.7949,-15.1284,-4.3589,-46.5383,0.25635,10,
-27.436,2.8203,-1.2822,-12.564,40.769,25.3848,21.2822,8.9741,-8.4614,-10,-3.8462,-48.9744,1.2822,15.1284,
-19.7439,5.3845,0.76929,-10.5129,39.2307,27.9485,24.3586,6.4099,-6.9231,-4.8718,-2.3079,-39.231,-0.76929,11.0256,
-16.9231,11.282,1.0256,-5.1282,45.6409,29.7434,21.5383,6.6663,-3.0769,-3.5901,-4.1028,-34.3591,-1.0256,14.8718,
-22.0513,10.7695,0,-9.7437,44.1025,25.1284,17.9487,7.6924,-3.5898,-7.6924,-7.6924,-42.564,0,9.7437,
-21.7949,8.9746,2.3076,-11.0254,41.2822,29.4873,22.3076,6.9233,-5.8975,-8.9741,-8.9741,-39.7437,-2.3076,8.9746,
-19.2307,12.5642,1.7947,-5.8972,47.4358,42.8206,25.3845,13.0769,-7.9485,-5.3845,-8.4617,-28.9744,-1.7947,23.9746,
-22.8208,6.9229,-0.25635,-17.1797,38.2051,35.6411,23.333,7.436,-6.9233,-13.5898,-11.0259,-43.8462,0.25635,23.333,
-21.5386,8.7178,0.5127,-18.9746,34.8716,31.7949,22.564,6.6665,-6.6665,-13.3335,-12.3076,-45.1282,-0.5127,17.436,
-20.7695,12.0513,-0.25635,-10.5132,36.6665,33.5898,25.3843,11.0254,-5.8975,-10.5132,-10.5132,-38.2053,0.25635,17.6924,
-24.8718,8.9744,0.76929,-14.1028,32.5642,26.9231,26.4104,8.4617,-4.8718,-15.6409,-9.9998,-48.4614,-0.76929,8.9744,
-23.5898,10.769,2.0513,-13.8462,34.8716,27.1792,25.6411,8.2051,-8.2051,-13.3335,-11.7949,-47.6924,-2.0513,9.7437,
-25.3845,5.8977,1.7947,-13.5896,29.4871,24.3591,26.4104,1.7947,-11.5383,-12.051,-12.5642,-41.282,-1.7947,8.4617,
-28.7175,6.1541,1.0256,-12.8201,24.1028,25.1282,25.1282,2.5642,-9.7434,-6.6663,-7.1794,-27.1794,-1.0256,13.8464,
-32.0513,10.5127,-0.76904,-15.6411,14.6152,30,23.8462,7.9487,-2.3076,-2.8203,-4.3589,-19.231,0.76904,26.4102,
-33.8462,7.6921,-1.5383,-16.4104,0.51294,27.6921,22.5642,9.7439,-0.51294,-3.0769,-7.1794,-24.6155,3.0769,26.1541,
-36.9231,5.6411,-3.5898,-12.8203,-4.1025,26.1538,20,8.7178,-3.5898,5.6411,-6.6665,-21.0254,3.5898,22.0513,
-41.282,1.7947,-4.8718,-17.1794,-15.1282,21.7947,21.282,0.25659,-0.25659,7.9485,-3.8459,-18.718,2.3079,15.1282,
-43.0767,1.0259,-4.1025,-16.4102,-22.564,22.5645,17.9487,2.5645,0,5.1284,-5.6406,-18.9741,0,14.3594,
-41.7949,1.282,-4.3591,-15.1282,-18.718,24.8718,17.1794,6.4099,-1.282,4.8718,-3.8464,-18.718,1.7947,21.7947,
-41.0256,-0.5127,-4.6152,-18.9746,-16.4102,14.8716,20.5127,1.5386,0.5127,3.5898,-2.564,-17.9487,2.0513,24.1025,
-41.0256,0.51294,-8.2053,-17.4358,-15.8977,13.3333,15.3845,3.5896,0.51294,7.1794,-6.1541,-15.3845,-0.51294,22.051,
-44.1025,-2.0513,-8.7183,-24.6152,-25.6411,14.8716,14.8716,2.0513,3.5898,6.1538,-5.1284,-23.5898,3.0767,9.2305,
-43.5896,-0.51294,-7.6921,-29.7437,-31.7949,14.8718,18.9744,0.51294,3.5896,6.6667,-3.5896,-26.6667,7.1794,10.7693,
-41.7949,0.25635,-12.0513,-23.3335,-30,13.5898,17.1797,3.8462,-0.25635,4.3589,-5.3848,-27.436,6.9229,20.2563,
-35.1282,2.8203,-4.8716,-16.6665,-20.769,17.1797,19.231,3.8462,2.8203,-4.8716,-2.8203,-32.5642,10,16.6665,
-30.7693,9.231,0,-12.3076,-5.769,31.2822,20,12.8203,0,-3.5898,-2.0513,-23.0769,8.2051,17.436,
-29.4873,6.9229,0.25635,-9.4873,-3.3335,33.0767,22.3076,17.1797,-2.3076,-0.25635,-5.8975,-17.1797,6.4102,26.4102,
-26.1536,5.6414,2.0515,-6.6663,-1.0256,33.8464,20.0002,9.7439,-4.1023,-5.6409,-9.7434,-20.5125,1.0256,33.3337,
-25.1282,10.2566,1.0256,-4.1023,11.7952,46.1541,18.9744,12.3079,-8.2048,-5.1282,-7.6921,-18.4612,-1.0256,28.718,
-31.7949,9.7437,-0.5127,-9.231,7.1792,37.9487,22.0513,14.3589,-7.1797,-5.6411,-8.7178,-27.1797,0.5127,14.8716,
-34.3591,11.7944,-2.0513,-13.3335,11.2817,29.2305,21.5381,12.3076,-3.0771,-8.7183,-6.1538,-40.0002,2.0513,14.3589,
-32.8203,8.2053,-3.5896,-16.9231,15.385,30.2566,23.0769,3.0769,-3.0769,-16.9231,-5.1282,-52.3076,3.5901,14.8718,
-32.5642,5.8975,-3.8462,-21.2822,8.4614,32.0513,26.9229,3.8462,-4.8716,-20.2563,-10,-51.0256,8.4614,18.2051,
-42.0513,8.2053,-6.6667,-25.1282,4.6155,26.6667,24.1028,5.6409,-4.6155,-16.9231,-10.2566,-41.5383,6.6667,14.8718,
-43.3333,5.8975,-4.3589,-21.7949,14.6152,24.8716,27.9487,0.76904,0.25635,-14.6152,-2.8203,-38.718,-0.25635,2.3076,
-37.6921,5.3845,-3.8459,-12.5642,27.4358,38.2053,33.0769,7.4358,-1.7947,-5.3845,0.76929,-26.4099,-0.76929,16.1541,
-46.6665,2.0513,-9.7437,-18.4614,12.8208,34.8721,30.2563,8.7178,-5.6411,-4.6152,-1.5386,-21.0254,1.5386,31.1541,
-50,3.8459,-7.4358,-19.2307,-0.25659,33.0769,32.0515,7.4358,-0.25659,-5.8972,0.25659,-17.6921,5.3845,32.0515,
-45.8975,5.8972,-8.4617,-11.0256,1.282,40.7693,31.5383,11.5383,-2.8206,-1.282,-1.282,-11.0256,2.8206,30.5129,
-44.8718,7.4358,-1.7947,-14.6155,-5.3845,39.2307,32.051,7.9485,0.76929,-1.282,-0.76929,-19.2307,8.4617,35.6409,
-53.3333,7.1794,-5.1282,-24.6152,-16.9231,32.3079,24.6155,1.0256,3.0769,-5.6409,-1.0256,-34.2307,10.7693,26.1541,
-57.6921,1.282,-12.5642,-20.7693,-14.1023,27.949,20.7693,3.8464,3.8464,-4.3591,-1.282,-36.6665,4.3591,11.1541,
-48.9744,0.76929,-4.3591,-12.5642,-3.8459,30.5129,23.8459,8.4617,3.3333,-5.3845,0.25659,-28.4617,-0.25659,10.5129,
-43.5896,5.1284,0,-12.3076,1.5386,40,22.0513,9.231,-4.1025,-6.1538,0,-20.5127,-1.5381,25.5129,
-47.9487,0.25659,-2.3079,-15.6409,-7.4358,34.1028,22.8206,5.8972,-1.7947,0.25659,2.8206,-13.5896,-0.25659,28.4617,
-52.564,-0.25635,-5.3843,-15.6411,-19.2305,24.3589,18.7183,7.9487,0.25635,11.0259,5.3848,-1.7949,-1.7949,25.8975,
-58.2051,-1.2822,-10.5127,-24.3589,-30,26.9229,13.0771,3.3335,-3.3335,7.436,4.3589,-1.7949,1.2822,38.2051,
-58.2051,-1.7947,-7.949,-30,-35.6411,29.4871,15.1282,0.76929,-0.76929,5.3845,5.8972,-6.9231,8.4617,31.5383,
-61.282,-2.3079,-13.0769,-26.9231,-33.5898,24.8718,7.9485,4.3591,-1.7947,8.9744,3.3333,-7.4358,1.7947,16.5383,
-59.4873,-2.0515,-13.3333,-24.6155,-31.282,21.0256,7.1794,3.0769,1.5383,3.0769,4.1023,-10.2566,-1.5383,10.7693,
-53.3333,0,-8.2051,-19.4868,-23.0767,25.6411,7.6924,4.6157,0,5.1284,6.1538,-3.5894,-3.0767,25.7693,
-53.8462,1.0256,-8.2053,-17.949,-20.0002,28.718,4.1023,6.1536,-2.5642,10.7693,9.2307,-1.0256,-2.0515,30.2566,
-57.436,-0.5127,-8.7178,-23.5898,-28.2051,20.5127,3.5898,-0.5127,0.5127,3.0767,13.3335,-15.8975,2.0513,15.2566,
-52.3076,-0.51294,-12.8206,-23.0769,-25.1282,21.0256,1.0256,2.0515,-2.051,4.6155,11.7952,-15.3845,0.51294,15.8977,
-46.4104,0.25635,-10.5127,-17.6924,-19.231,25.3843,3.333,6.4102,-0.25635,12.0513,10,-4.3589,-1.2822,22.8203,
-53.0767,1.7952,-8.9744,-17.6921,-19.2307,19.7439,1.282,2.8206,-1.282,9.4875,8.4617,-1.282,-6.9231,17.6926,
-60,2.564,-11.2822,-22.0513,-23.0767,15.3848,0,2.564,-1.0254,6.1538,10.2563,-5.1279,0,15.8975,
-59.4871,-2.0513,-12.3076,-29.7434,-30.769,11.7949,0,0,4.6157,4.1025,12.3076,-17.9487,8.7183,17.436,
-56.4104,-0.5127,-16.4102,-27.6924,-26.1541,12.8203,-2.564,0.5127,5.1279,7.1792,10.2563,-13.8462,4.6152,15.8975,
-59.4871,0.51294,-16.9231,-24.1023,-27.6921,8.2053,-0.51294,-2.5642,2.0515,7.1794,8.718,-4.1023,1.5383,7.6921,
-59.7437,1.7949,-8.9741,-21.2822,-30.5129,12.564,-1.2822,0.25635,-0.25635,10.5127,12.0513,-5.8975,4.3589,13.0771,
-60.7693,0.25659,-6.4104,-24.3591,-30.5129,12.5642,-4.8718,8.4617,-0.25659,9.9998,9.4871,-17.6921,4.3591,5.8972,
-55.8975,-0.51294,-1.0256,-26.1541,-28.2053,7.1794,5.1282,4.1023,8.2048,7.1794,0.51294,-18.4617,7.6921,-9.1028,
-48.718,3.5898,0,-23.0771,-17.436,15.8975,11.2817,0,10.769,10.769,-10.7695,-10.2563,8.2051,-4.1025,
-51.7947,-1.0256,-2.5642,-29.7434,-16.4099,17.949,7.1794,3.0769,9.2307,1.0256,-17.9485,-25.2563,7.1794,10.8975,
-50.5127,0.76929,-0.76929,-30.5127,-17.1794,13.0769,8.9744,9.4871,11.0256,-6.4104,-20.7693,-34.6152,15.1282,4.3591,
-49.7434,4.6152,-5.6411,-22.0513,-17.4358,9.7437,9.231,8.2051,8.2051,2.564,-24.1025,-19.6152,15.3848,-2.564,
-51.0259,2.3076,-3.8462,-20.2563,-26.9233,7.9487,10.5127,4.3589,6.4102,11.0254,-22.8208,-4.8721,6.4102,-2.3076,
-51.5383,2.8206,-1.7947,-23.8459,-23.8459,12.5642,7.4358,10.5129,1.282,17.6926,-23.3333,10.1279,-1.282,-4.3586,
-53.8462,-3.0771,-8.7178,-31.7949,-22.0513,10.2563,1.5386,2.0513,-0.5127,13.8462,-27.1797,25.1279,0.5127,10.2563,
-42.8206,0.76929,-0.76929,-23.3335,-12.5642,16.6667,8.9744,-0.76929,8.9744,9.4871,-18.2053,10.1279,9.9998,25.2563,
-48.4617,1.7949,-5.3848,-24.8718,-12.564,18.2051,2.3076,3.3335,1.7949,-1.2822,-22.3076,-4.8721,1.2822,22.3076,
-53.3333,5.1282,-7.6921,-29.2307,-27.564,13.8464,2.5642,9.2307,8.718,-0.51294,-25.1282,-19.8721,8.718,7.3076,
-52.8203,-0.51294,-8.2048,-30.2563,-36.4102,11.7952,0.51294,8.718,10.7693,4.6155,-26.1538,-4.8721,13.8464,8.2053,
-51.0259,-7.436,-6.9233,-26.4104,-23.3335,10.5127,-0.25635,3.8462,4.8716,4.3589,-21.7949,0.25635,6.4102,11.5381,
-45.8975,-3.3333,-2.8206,-19.7439,-9.4875,9.9998,5.3845,2.8206,7.4358,5.8972,-15.6414,-14.7437,5.8972,5.8972,
-41.7947,-0.25635,-3.8462,-19.2307,-8.9741,17.6924,0.25635,6.4106,7.9487,9.4873,-17.1792,-24.8716,7.9487,10.5132,
-36.4102,-2.0515,-0.51294,-21.5386,-11.7947,20.5129,0.51294,5.1282,11.282,11.7947,-14.3591,-11.7947,10.7693,7.1794,
-36.4102,2.0513,-4.1025,-19.4873,-7.6924,18.4614,-2.0513,4.1025,7.1797,12.8203,-16.9229,-7.1797,8.7178,9.231,
-37.6924,5.3845,-3.8464,-16.1541,-5.8977,20.7693,-3.3333,7.4358,3.3333,8.4617,-19.2307,-17.6921,9.9998,17.1794,
-40.2563,-0.76904,2.3076,-18.2051,-10,16.6665,-5.3848,3.8462,2.3076,0.76904,-19.231,-20.769,2.8203,3.8462,
-41.0254,1.0256,1.0256,-13.8459,-9.2307,17.949,-7.6921,6.6667,5.1282,10.2566,-15.8972,-8.718,2.5642,-1.0256,
-42.3076,-0.25635,-2.3076,-19.2305,-15.6411,15.1284,-8.9741,5.3848,6.9233,15.6411,-15.6411,0.25635,9.4873,5.3848,
-45.8975,-2.3076,-2.8208,-28.4614,-16.667,11.5386,-16.1538,3.333,2.3076,11.5386,-17.6924,3.8462,4.3589,16.6665,
-45.6409,-0.51269,-1.0254,-24.1025,-12.8203,14.8721,-14.8716,3.5898,3.0771,11.2822,-14.3589,0.5127,1.5386,14.3589,
-40.7693,-2.3076,1.2822,-18.7178,-14.6152,13.0771,-7.9487,2.8203,4.3589,11.0254,-16.1538,-0.76904,2.3076,0.76904,
-41.2822,1.282,-0.76929,-17.6926,-13.0769,12.051,-13.0769,6.9231,0.76929,13.0769,-18.2053,4.8718,-0.76929,2.3074,
-43.8462,3.3335,0.25635,-20.2563,-16.1538,11.5386,-13.0771,4.3589,4.3589,9.4873,-12.564,-1.2822,1.2822,-0.25635,
-41.0256,1.5386,-1.5386,-21.5386,-14.3589,14.8716,-11.2822,4.6152,4.1025,4.6152,-14.3589,-6.1538,4.1025,1.5386,
-38.4617,1.5386,-3.5898,-18.4614,-3.0771,18.9741,-10.2563,7.6924,1.5386,8.2051,-18.9746,-1.5386,5.6411,16.4102,
-36.4104,0,0,-14.8721,-3.0771,13.8462,-7.1797,2.564,5.1279,10.769,-13.3335,-1.0259,2.564,10.2563,
-34.6152,3.8464,-0.76929,-13.0769,-3.8459,17.1794,-8.4617,6.9231,6.4104,11.0256,-9.4871,2.3079,0.76929,-1.282,
-39.4873,3.5896,-4.1028,-18.4617,-4.1028,16.4099,-9.2312,7.6921,4.1023,6.1536,-14.8718,-3.0769,4.1023,3.0769,
-37.949,2.051,-2.0515,-16.9231,-1.0256,12.3074,-7.6926,4.1023,1.0256,4.615,-19.4875,-2.5642,1.0256,17.4358,
-33.5896,3.3335,-5.3843,-12.0513,1.7949,12.0513,-10,3.3335,-1.7949,6.9233,-19.7437,5.8975,-4.8716,15.6411,
-37.9487,1.0256,-9.2307,-22.051,-7.1794,9.7439,-9.2307,2.5642,3.5896,5.1282,-16.4104,0.51294,-0.51294,7.6921,
-41.7949,-0.76929,-14.1028,-30.5129,-12.0515,11.5383,-10.0002,3.3333,2.8206,10.5129,-17.1794,1.282,0.76929,14.6155,
-36.9231,-0.51294,-10.2566,-25.6409,-8.2048,11.7952,-8.2048,1.0256,1.5383,13.8464,-18.4617,6.6667,0.51294,16.4104,
-30,2.3076,-4.3589,-20.769,0.25635,11.0259,-6.9229,-0.25635,-0.25635,6.9229,-21.7949,0.25635,1.7949,11.5386,
-26.9231,4.8718,-4.8718,-20.2566,6.4104,14.6155,-4.8718,5.3845,-2.8206,4.8718,-21.7947,-2.8206,2.8206,14.1028,
-25.1279,1.0259,-3.0767,-22.564,0,10.2568,-3.0767,1.5386,0,3.0771,-18.4614,-7.6919,0,11.2822,
-26.1541,3.0769,-1.5388,-21.0256,1.5383,12.3074,-6.1541,1.0256,2.5637,3.5896,-16.4104,-7.6926,-1.0256,12.3074,
-32.8206,2.051,-5.1282,-24.1028,1.5383,11.7947,-6.1541,2.5642,2.051,0.51294,-18.9744,-10.2566,-0.51294,9.7434,
-28.7178,0.51269,1.0259,-22.0513,4.1025,8.7183,-0.5127,3.5898,-2.564,3.5898,-20.5127,-3.5898,-3.0767,13.8462,
-28.7178,-0.5127,0.5127,-18.9746,8.7178,9.7437,-2.0513,6.1538,-10.769,10.2563,-24.1025,6.6665,-9.231,23.0767,
-31.7949,0,-0.5127,-23.0767,1.0259,9.231,0,6.1538,-6.1538,8.2051,-23.0767,4.1025,-2.564,23.5898,
-33.8462,2.0513,-2.0513,-26.1538,-6.1538,11.7949,-4.1025,3.0767,-3.0771,7.1792,-21.5386,5.6411,3.0767,27.6924,
-33.3335,2.5637,-2.0515,-24.6155,-7.1794,10.7693,-4.6155,1.0256,-1.0256,6.6663,-18.4617,6.6663,1.0256,23.0769,
-32.5637,3.3333,0.76929,-23.3333,-8.4612,5.8977,-1.282,1.282,-0.76929,0.76929,-18.718,2.3079,-6.9231,12.0515,
-30.7695,5.1279,0,-16.9233,-5.6411,11.2817,0,7.6919,-3.0771,2.564,-18.4619,5.6406,-6.667,27.0515,
-34.6152,0.25635,0.76904,-19.7437,-14.1025,6.4102,0.25635,-0.25635,-3.8462,1.2817,-23.3335,7.436,-3.8462,42.0515,
-35.3845,3.0771,6.667,-16.4102,-18.9741,6.667,-2.564,2.564,-4.1025,6.667,-25.1279,11.7949,-4.6152,27.1797,
-35.6411,2.3076,5.3843,-12.0513,-22.3076,9.4873,-2.3076,8.9741,-2.3076,9.4873,-17.6924,4.8716,-3.8462,20.769,
-37.4358,-3.5898,3.0771,-16.9229,-23.0767,5.6411,1.0259,0,0.51269,3.5898,-12.8203,-3.5898,0,25.6411,
-32.8206,1.0256,0.51294,-17.4358,-8.718,8.718,-0.51294,2.051,-1.5383,3.0769,-15.3845,4.1023,-2.0515,31.7947,
-26.1541,1.0256,0.51294,-16.4104,-5.6409,8.718,-0.51294,8.2053,-2.5642,0.51294,-18.9744,8.2053,-5.1282,32.8206,
-29.4871,1.7947,0.25659,-15.6409,-6.4104,10.5129,-0.25659,8.9744,-2.8206,3.8459,-18.718,7.949,-3.8459,35.1282,
-37.4358,4.6157,-1.5381,-17.4355,-5.1279,10.7695,0,6.1538,0,8.7183,-15.8975,5.6411,0,28.7183,
-37.9487,-0.5127,-0.5127,-18.9746,-13.8462,5.6411,1.5386,4.1025,5.6411,3.5898,-14.8721,-3.0771,0.5127,18.4614,
-35.3845,0.51294,-0.51294,-13.8459,-14.3591,10.7693,1.5383,5.6409,4.6155,6.6667,-13.8459,-4.1023,-0.51294,28.2053,
-38.4617,1.0254,0,-15.3848,-11.2822,10.2563,2.564,-0.5127,0,5.1279,-12.3076,-4.1025,0.5127,31.7949,
-34.8718,5.1282,1.0256,-11.282,2.051,9.7434,2.5642,2.051,-1.5383,-3.0769,-11.282,-4.1028,-1.0256,22.051,
-31.0256,9.4871,2.3079,-7.9485,12.0515,10.0002,4.3591,3.3333,-2.3079,-7.9485,-13.5896,-15.1282,-3.3333,8.9744,
-28.9744,9.4875,8.4617,-9.9998,6.4104,8.4617,13.0769,-1.282,0.76929,-3.3333,-12.051,-12.051,-0.76929,11.0256,
-34.8718,4.6152,-0.5127,-15.3848,-3.0771,7.1792,9.2305,2.564,-2.0513,2.564,-14.3589,-0.5127,0.5127,20,
-44.8718,-0.76904,-8.4614,-24.3591,-17.1797,0.76904,7.9487,2.8203,0.76904,1.7949,-12.0513,-12.564,7.436,7.9487,
-41.5383,3.0771,-2.0513,-23.0769,-15.8975,2.0513,13.8462,-2.0513,4.1025,6.667,-6.1538,-6.6665,10.2563,2.5645,
-33.8462,2.564,-2.0513,-17.436,-0.89746,7.6924,9.231,-3.0767,-3.5898,8.7178,-11.2822,8.3335,0,11.7949,
-28.4614,3.8462,-0.25635,-16.6665,3.3335,13.0771,6.9233,0.25635,-4.8716,2.3076,-14.6152,-2.8203,-4.3589,17.6924,
-25.3845,11.0256,1.7947,-15.1282,-2.3079,23.3333,6.9231,4.8718,-3.8459,3.3333,-12.0515,-12.0515,-1.7947,19.7434,
-28.4614,5.3848,-0.25635,-14.6152,-12.0513,18.7178,6.9229,1.7949,-0.76904,2.8203,-12.0513,-11.5386,0.25635,10,
-32.5642,2.8206,-0.25659,-14.1028,-16.6667,11.5383,3.8459,-0.76929,1.7947,0.76929,-13.5896,-16.6667,0.25659,9.9998,
-36.1538,8.4614,-2.3076,-14.1025,-22.8203,18.2051,-0.76904,3.8462,0.76904,5.8975,-9.4873,-8.9746,2.3076,23.8462,
-33.0771,4.3589,-3.8462,-17.1797,-33.0771,14.1025,0.25635,0.76904,-0.25635,4.8716,-9.4873,-2.3076,1.7949,13.0767,
-26.6665,5.1279,0,-13.8462,-24.6152,11.2822,0,2.0513,-2.564,7.6924,-13.8462,3.5898,-3.0771,4.6152,
-30.5127,6.4102,1.2822,-10.5127,-21.2817,11.0259,-1.2817,-0.25635,0.25635,12.0513,-14.1025,8.9746,-3.333,14.6157,
-32.3079,3.0767,-2.0513,-7.6924,-26.1538,10.2563,0,-3.0771,5.1279,11.7949,-9.7437,6.1538,0,22.0513,
-31.0256,1.282,-6.4104,-6.9231,-27.9485,10.5129,-3.3333,-0.25659,0.25659,10.5129,-8.4617,5.8972,0.25659,14.6155,
-29.4868,2.3076,-0.25635,-12.0513,-31.0256,8.4614,0.25635,-3.8462,2.8208,11.0259,-7.9487,8.9746,1.7949,-0.38452,
-30.7695,5.1282,-2.0515,-16.4104,-30.7695,5.6409,1.0256,-3.5901,6.6663,17.9485,-7.1799,7.1794,2.5637,-1.0256,
-33.3335,2.5637,-9.7439,-20.0002,-34.3591,1.0256,-5.1282,-1.0256,3.0769,21.5383,-8.2053,3.5896,2.051,9.7434,
-27.4358,3.8459,-3.8464,-14.6155,-34.6155,0.76929,-8.4617,-0.76929,5.3845,22.3074,-7.949,12.5642,3.8459,17.1794,
-26.4104,6.4102,-6.4102,-11.5386,-29.4873,3.3335,-12.564,-1.7949,7.9487,21.2822,-8.4614,17.1797,1.7949,14.1025,
-25.1282,7.6921,-2.5642,-14.3591,-25.1282,1.5383,-4.6155,-1.5383,11.282,20.0002,-2.051,13.3333,6.1541,10.2566,
-25.6411,6.6667,0.51294,-20.0002,-29.7437,-0.51294,-4.6155,-1.0256,2.051,12.3074,-6.1541,9.2307,7.1794,11.7947,
-22.0513,7.6924,-2.564,-19.4873,-27.6924,3.0771,-3.0771,2.564,3.0771,2.564,-6.1538,-4.6152,10.769,10.769,
-18.2051,7.9487,-3.3335,-19.7437,-18.2051,3.8462,-0.25635,0.25635,8.9741,-2.8208,0.76904,-18.2051,11.0254,7.9487,
-22.8203,7.9487,-7.9487,-22.8203,-16.1538,1.7949,-8.9741,-1.7949,1.7949,6.4102,-2.3076,-3.2051,2.3076,4.3589,
-22.3076,7.9487,-5.3848,-21.2822,-21.7949,-0.25635,-9.4873,0.25635,4.8716,14.6152,-2.8208,11.7949,4.8716,3.333,
-19.7434,6.4104,-5.3845,-16.1536,-16.1536,2.8206,-13.0769,-1.282,2.3079,8.9744,-5.3845,5.8977,1.282,18.333,
-15.6411,8.4614,-2.8203,-13.0767,-3.8462,10,-13.0767,-0.25635,0.76953,6.9233,-5.3843,3.3335,0.25635,33.333,
-15.6411,4.3589,-1.2822,-17.6924,-7.9487,2.3076,-10.5127,-2.8203,3.8462,3.8462,-6.9229,1.2822,1.7949,18.333,
-13.8464,8.2048,-0.51294,-13.3333,-6.6667,0.51294,-14.3591,0.51294,2.051,7.1794,-6.6667,3.0769,3.5896,3.333,
-19.4871,10.2566,0.51294,-17.9485,-16.9231,0.51294,-16.4104,-0.51294,3.5896,1.5383,-2.5642,-5.6409,9.2307,17.4358,
-20.2566,10.5129,-0.25659,-21.7949,-19.2307,2.8206,-14.6155,0.76929,7.9485,-1.282,0.25659,-8.9744,11.0256,22.3079,
-13.333,8.7183,0,-13.333,-4.2307,2.0513,-15.3843,0,5.1284,3.5898,-4.1025,-1.5381,4.1025,12.3076,
-6.9229,10.5132,9.4873,-6.4102,3.3335,-1.7949,-12.564,-2.8203,1.7949,1.7949,-5.8975,-2.3076,3.8462,11.0259,
-11.0259,13.0767,5.3843,-9.4873,0.25635,2.3076,-13.5898,-0.25635,0.25635,-3.3335,-4.3589,-12.0513,7.4355,19.2305,
-14.3589,11.7952,-1.0256,-14.3589,-8.7175,6.1541,-9.2307,1.0256,12.3079,-2.051,5.6414,-12.3074,15.8977,7.1799,
-17.949,10.2561,-6.1541,-20.5129,-15.3845,2.051,-11.7952,-1.0256,12.8206,3.5896,7.1794,1.0256,12.8206,-3.5901,
-18.9741,8.2051,-10.2563,-23.5894,-5.6411,0,-19.4868,0,0.51318,4.6157,-0.5127,2.5645,3.0771,11.4099,
-9.7437,10.769,-0.51269,-16.4102,4.1025,0.5127,-13.8462,-0.51269,2.564,4.1025,-2.0513,-2.564,2.564,26.4099,
-9.4873,14.6152,0.76904,-12.0513,0.76904,-0.76904,-16.6665,-0.25635,0.76904,4.8716,-6.9233,-1.2822,0.25635,16.6665,
-11.0254,14.1025,-0.25635,-13.0767,-0.25635,0.25635,-16.1538,1.7949,2.3076,5.8975,-5.8975,-0.76904,3.3335,1.6665,
-8.9744,10.5129,-2.8206,-17.1794,-0.76929,1.282,-15.6409,-0.76929,4.8718,5.3845,-1.7947,0.76929,5.8972,11.5383,
-13.0771,8.4614,-11.5386,-21.2822,-7.436,0.25635,-21.7949,-0.76953,1.2817,2.3076,-0.25635,2.8203,2.8203,21.7949,
-12.5645,8.4614,-7.436,-19.7437,0.76904,-1.2822,-17.6924,-0.76953,3.8462,1.2817,0.25635,-0.25635,4.8716,15.1279,
-12.0513,7.436,-6.4102,-18.7178,15.769,0.25635,-20.2563,-1.7949,-0.25635,5.3848,-5.3843,6.9233,2.8208,12.5645,
-14.6155,3.8459,-9.4871,-22.8206,3.3333,-4.3591,-24.3591,-1.282,1.282,7.4358,-1.282,11.0256,1.7947,9.9998,
-12.5642,3.8464,-8.9744,-24.3586,-7.9485,-5.8972,-21.282,0.76929,6.9231,3.8464,5.8977,-0.76929,4.8718,7.4358,
-10.5127,7.9487,-11.5386,-24.3589,7.0515,-0.25635,-19.2305,0.25635,1.2822,-1.2817,0.25635,-6.9229,2.8208,11.5386,
0,14.3589,-2.0513,-18.9746,22.0515,2.0513,-9.7437,0,1.0254,-3.5898,-0.51318,-3.5898,5.1279,13.333,
4.8721,14.6157,-0.25635,-16.1538,37.0515,0.25635,-13.0767,2.3076,-4.8716,-3.333,-3.8462,-3.333,1.7949,13.0771,
1.2822,12.564,-4.8716,-19.231,28.4614,-0.25635,-17.1797,1.7949,-6.4102,0.25635,-2.3076,-10,3.3335,13.0767,
0,13.8462,0,-18.9741,23.5898,-1.5386,-15.3848,-1.0254,0,0.5127,1.0259,-13.3335,5.6411,7.1797,
0,13.8457,1.0254,-14.8721,18.9741,-1.5386,-17.9487,1.0254,0,1.5381,-1.5386,-5.1284,3.0767,-3.5898,
2.5642,12.3074,-2.0515,-16.9231,16.9231,-3.0769,-17.4358,-1.0256,1.5383,1.0256,2.051,-3.0769,4.6155,-5.1282,
4.6152,17.436,-3.0771,-14.8721,26.1538,-1.0259,-18.9746,-0.51269,-1.0259,0.5127,3.5898,-4.1025,1.0254,9.8718,
3.3333,16.6667,1.7947,-8.4617,26.9231,-2.8206,-18.718,-0.25659,-1.282,0.25659,-2.8206,-2.3079,0.25659,13.0769,
4.6157,12.3076,5.1284,-9.2305,15.8975,-6.6665,-16.9229,-1.0254,2.5645,0,-5.1279,0,7.1797,-1.0254,
6.6667,17.4358,-0.51294,-10.2566,18.9744,-3.5896,-20.5129,3.5896,-2.5642,-1.0256,-1.5383,0.51294,5.6409,3.5896,
9.4871,22.3074,1.7947,-6.9231,33.0769,-1.7952,-16.1541,5.8972,-4.8718,-0.76929,-0.76929,-2.3079,0.76929,18.5896,
4.6152,14.8721,-1.5386,-9.7437,28.2051,-0.5127,-19.4873,2.564,-5.1279,3.0771,-4.1025,0.5127,-1.0254,14.8721,
-5.1282,7.6921,-11.282,-16.4104,13.2051,-3.5896,-25.6411,-0.51294,2.0515,2.5642,-0.51294,0.51294,3.5896,2.0515,
-8.9746,10.5127,-7.9487,-16.667,1.7949,-10,-22.3076,0.25635,7.9487,-0.25635,2.3076,-3.8462,7.9487,1.2817,
-9.7434,9.7434,-5.6409,-11.282,12.3079,-3.5896,-24.1023,1.0256,-1.0256,4.6155,-2.5642,5.6409,6.1541,7.1794,
-3.3335,5.3848,-0.76904,-11.5386,15.6411,0.25635,-21.2822,-0.25635,-1.2822,4.3589,-3.8462,12.564,6.4102,8.4614,
2.8206,11.0256,-0.25659,-14.6155,17.6921,-4.8718,-21.7947,3.8459,-2.3079,-5.8972,-5.8972,1.7947,0.25659,12.5642,
6.4102,21.7949,0.76904,-10,32.564,-0.76904,-16.6665,12.0513,-1.2822,-4.8716,-1.2822,-5.8975,2.3076,17.1797,
1.7949,15.1279,-2.8208,-19.231,30.5127,-3.3335,-15.6411,-0.25635,1.2817,-3.8462,2.3076,-8.9746,4.8716,2.1797,
1.5383,14.3591,-3.5896,-19.4871,30.7693,-4.1023,-16.4104,-1.0256,1.0256,-5.1282,2.0515,-9.7434,4.6155,2.5642,
1.7947,14.6155,-3.3333,-19.7439,31.0256,-4.8718,-16.1541,-1.282,1.282,-5.8977,2.8206,-10.0002,4.3586,5.8972,
2.564,14.3589,-3.5898,-19.4873,31.7949,-5.1284,-15.8975,-1.5386,1.5386,-6.6665,3.5898,-10.7695,4.6152,8.7178,
2.8206,14.6155,-3.3333,-19.7434,32.0515,-5.8972,-15.6409,-1.7947,1.7947,-7.9485,4.3591,-11.0256,4.3591,12.0515,
3.0771,14.3589,-3.5898,-19.4873,32.8208,-6.1538,-15.8975,-2.0513,2.0513,-8.7178,4.6152,-11.2822,4.1025,14.8721,
3.5896,14.3591,-3.5896,-19.4871,32.8206,-7.1794,-15.3845,-2.5642,2.5642,-9.2307,5.1282,-11.7947,4.1028,18.4617,
4.1028,16.4104,-6.1536,-19.9998,25.1282,-7.6921,-16.9231,-0.51294,0.51294,-3.0769,5.1282,-8.2048,1.5383,13.8464,
6.1538,14.8721,-3.0767,-21.5386,26.6665,-10.2563,-16.9229,-4.6152,1.0259,0.5127,-0.5127,4.6152,1.5386,-1.1536,
7.1797,14.8721,3.5898,-15.3843,35.8975,-9.7432,-16.9229,-4.6152,0,4.1025,-2.564,16.4106,-1.0254,0,
8.7183,17.436,9.7437,-10.2563,31.7949,-6.1538,-16.4102,-3.0767,-2.0513,0.5127,-0.5127,1.5386,-6.6665,15,
11.0259,23.3335,5.8975,-6.4102,27.436,8.8462,-21.2822,3.3335,-6.4102,-3.3335,-3.8462,-8.9741,-9.4873,24.3589,
10.0002,20.7693,2.3079,-7.4358,12.436,23.8462,-21.7947,9.4871,-2.8206,-4.3591,-4.3591,-7.9485,-2.3079,11.5383,
3.8462,13.5898,1.7949,-14.1025,-2.564,24.3589,-23.8462,7.9487,0.25635,-3.3335,-1.2822,-6.4102,-0.25635,2.8203,
-0.76929,16.6667,-4.8718,-13.5896,-17.564,24.8718,-31.5383,8.9744,-1.7947,6.4104,0.76929,7.949,-2.3074,15.1282,
2.3076,16.1538,-9.4873,-14.1025,-23.3335,17.6924,-30.5127,2.8208,-2.3076,8.4614,-2.3076,18.7178,-2.8203,21.2822,
6.1538,14.8721,-8.2051,-14.8716,-17.436,20,-25.1279,3.5898,-3.5898,4.6157,-5.6411,18.4614,-4.1025,23.0771,
1.2822,16.1538,-3.8462,-11.5386,-21.2817,26.4102,-22.8203,10.5132,0.25635,-0.76904,-0.25635,11.5386,-3.8462,23.8462,
-1.5386,14.3589,-2.564,-6.6665,-28.2051,22.0513,-23.5898,8.2051,1.5386,-2.564,3.5898,8.7178,-4.6152,23.0767,
-1.0256,16.4104,-3.5896,-5.1282,-25.6409,19.4871,-25.1282,8.2053,-2.0515,6.1536,1.0256,10.7693,-3.0769,27.6921,
-2.8206,16.1541,-0.76929,-9.9998,-25.3845,19.2307,-24.8718,5.8977,-1.7947,8.4617,0.76929,4.8718,-3.3333,22.8206,
-3.3333,15.1282,-1.7947,-9.9998,-23.3333,21.7947,-25.3845,3.3333,-4.3591,7.949,1.7947,10.0002,-6.4104,16.1541,
-5.8975,15.6411,-2.8203,-11.5386,-24.3589,16.6665,-23.3335,-1.2822,-0.25635,8.9741,1.7949,13.5898,0.25635,13.0771,
-16.4102,9.231,-9.2305,-23.0767,-38.4614,8.2056,-30.2563,-5.1279,4.1025,5.6411,0,3.5898,0,7.6924,
-22.0515,8.2053,-18.4617,-24.1028,-48.2051,16.9231,-37.436,0.51294,-0.51294,10.2566,1.0256,11.7947,-8.2053,11.7947,
-19.2307,11.0256,-12.051,-17.1794,-49.4871,20.7693,-25.8972,-1.282,1.282,12.5642,3.3333,23.8464,-4.8718,16.6667,
-14.6152,14.6157,-1.7949,-9.4868,-41.7947,21.2822,-17.6924,-1.2817,2.8208,10.5132,0.25635,27.436,-0.25635,24.3589,
-14.6152,16.667,-3.8462,-6.9229,-37.6921,22.8208,-18.7178,-0.25635,0.25635,5.8975,1.7949,22.8208,-2.8203,22.3076,
-16.1538,18.7183,-2.3076,-10.5127,-33.0769,17.6924,-14.1025,-2.8203,1.7949,5.3848,8.4619,15.1284,-1.7949,7.436,
-16.4099,18.9744,-1.0256,-13.3333,-23.5896,16.4104,-13.3333,-3.0769,1.0256,9.2307,6.6667,14.8718,-1.5383,9.2307,
-17.6921,15.6414,-0.76929,-15.6409,-28.4612,19.2307,-14.1023,-2.8206,0.76929,4.3591,1.282,6.9231,-1.7947,20.7693,
-19.2307,20.2566,-1.282,-15.6409,-29.9998,25.3845,-13.0769,1.282,-0.76929,4.8718,-1.282,11.5383,0.76929,24.3591,
-21.5386,18.9741,-5.6411,-14.8721,-27.1797,24.1025,-13.8462,-0.5127,-2.564,11.7949,0.5127,26.5383,1.5386,18.9741,
-17.4358,13.8459,-4.1028,-14.8718,-25.1282,22.051,-9.7434,-1.5383,1.5383,11.282,5.1282,30.7693,-2.5642,19.4871,
-19.2307,15.6409,-5.3845,-17.1794,-22.8206,25.3845,-8.9744,5.8972,-1.282,1.282,3.8459,15.7693,-6.4104,21.7947,
-25.1282,16.4102,-4.1025,-21.0254,-26.6667,18.4614,-3.5898,7.6924,1.5386,-7.6924,7.6924,0.76929,4.1025,15.8975,
-22.3076,14.6157,-2.3076,-17.6924,-27.9487,13.5898,-3.8462,4.3589,2.3076,-8.9741,8.4614,-2.8203,5.3848,10.5127,
-13.0771,19.7437,-0.25635,-9.4873,-15.1284,26.4102,-5.8975,8.4614,0.25635,-2.3076,5.3843,7.9487,-0.76953,8.9741,
-15.8972,18.4617,-0.51294,-15.8972,-16.9231,23.5896,-7.1794,5.1282,0.51294,-3.0769,1.5383,9.2307,-1.0256,8.2053,
-27.1794,13.8464,-9.7434,-22.5642,-28.2048,12.3079,-13.3333,2.5642,-1.5383,0.51294,3.0769,12.3079,-0.51294,23.0769,
-35.6411,6.9229,-16.1538,-28.4614,-35.6411,8.4614,-14.6152,-0.25635,0.25635,0.25635,5.8975,10.5127,-1.2822,18.2051,
-31.2822,7.6924,-10.7695,-29.7437,-33.3335,16.9229,-11.7949,1.0254,0,-2.0513,5.1279,7.1792,0,7.1792,
-28.9744,10.5129,-10.0002,-25.8972,-32.5642,17.6921,-13.0769,3.3333,-5.8972,-0.25659,0.25659,6.9231,0.25659,13.5896,
-33.5898,10.5129,-8.4617,-26.4104,-39.7437,8.4617,-12.0515,0.25659,-5.8972,-0.25659,1.282,6.4104,1.282,12.0515,
-34.1025,13.5898,-9.4873,-23.8462,-31.0254,14.6152,-14.1025,3.3335,-8.4614,3.8462,1.2822,14.1025,-1.2822,17.1797,
-26.4102,14.6152,-8.4614,-18.2051,-21.7949,20.2563,-13.0771,6.4102,-3.8462,12.0513,0.25635,26.4102,-0.25635,31.0259,
-26.4104,12.0515,-5.8972,-19.7434,-26.4104,11.5383,-12.5642,1.7947,-1.282,12.5642,1.282,34.6155,-2.8206,28.9744,
-34.1028,11.5386,-7.436,-21.7949,-26.4102,8.9741,-16.1538,4.8716,-4.3589,7.9487,4.3589,29.4873,-6.9233,23.333,
-34.1025,8.4617,-4.8718,-19.7434,-33.0769,10.5129,-13.5896,6.9231,-1.282,1.282,6.4104,14.4873,-1.7947,25.3845,
-27.6921,10.2566,-5.1282,-15.3845,-32.8206,11.282,-14.3591,4.1023,-1.5383,1.0256,1.5383,12.3079,-1.0256,25.6409,
-23.0771,14.3589,-5.1284,-13.8462,-22.0513,9.231,-12.8203,2.0513,-2.0513,3.5898,3.5898,20.5127,-4.6152,13.3335,
-20.5127,14.3589,-2.0513,-10.2563,-21.0254,8.7183,-14.3589,2.0513,-2.564,9.7437,5.6411,26.667,-9.2305,14.3589,
-24.8716,14.1025,-3.8462,-8.9741,-22.8203,14.1025,-19.7437,4.3589,-2.3076,18.7178,2.3076,35.1284,-8.4614,29.3589,
-32.8203,9.231,-7.1792,-18.9741,-27.1792,8.7183,-17.9487,-0.5127,0.51269,12.8208,3.5898,29.231,-3.5898,40,
-33.8462,10.2563,-11.2817,-22.564,-25.6411,7.6924,-16.9229,0.51269,-0.5127,7.1797,7.6924,22.564,-4.1025,25,
-33.0769,11.5388,-13.0769,-20.7693,-28.4612,12.0515,-16.1536,-0.76929,0.76929,10.5129,10.0002,17.6926,-4.3586,10,
-34.1028,8.9744,-11.5383,-23.8464,-29.4871,9.9998,-15.1282,-4.8718,2.8206,8.4617,6.4099,8.9744,-2.8206,15.6409,
-33.0769,12.0513,-13.5898,-22.8203,-18.2051,11.0259,-16.1538,2.8203,-1.7949,4.3589,1.7949,11.5386,-4.3589,27.436,
-29.231,11.2817,-13.3335,-23.0771,-18.9746,7.6924,-14.8721,2.0513,-2.0513,3.0767,3.0767,18.4614,-7.1797,15.8975,
-26.6665,11.2822,-12.3076,-19.4873,-17.9487,7.1797,-15.3848,-1.5386,1.5386,11.2822,7.6924,27.6924,-8.2051,13.3335,
-30.5129,11.0256,-15.6409,-18.718,-16.6667,8.9744,-14.1028,-0.76929,0.76929,10.5129,8.9744,21.282,-3.8459,18.2053,
-28.7178,11.7949,-10.2563,-21.0259,-23.5898,8.2051,-8.7178,0.5127,-0.5127,1.0254,8.2051,9.7437,-1.0259,16.9229,
-22.3076,16.6665,-5.8975,-17.1797,-15.6411,10,-14.6157,5.3843,-3.8462,5.8975,3.8462,19.2305,-6.4102,25.8975,
-22.8203,16.1538,-2.3076,-12.0513,-7.436,7.9487,-16.1538,3.3335,-1.7949,11.5386,1.7949,23.8462,-6.9229,21.2822,
-26.1538,15.8975,-3.5898,-15.3848,-13.8462,9.7437,-13.333,-0.5127,0.51269,9.7437,5.1284,19.4873,-3.5898,9.231,
-30.5129,15.6409,-12.0515,-25.3845,-19.7439,11.5383,-13.5901,-1.282,1.282,9.4871,8.4612,22.8206,-3.8464,16.6667,
-34.8718,11.7949,-14.8716,-30.2563,-17.9487,5.6411,-14.3589,-2.0513,2.0513,8.2051,6.667,21.0259,-4.1025,19.4873,
-35.8975,13.3335,-14.3589,-26.1538,-17.436,6.6665,-16.4102,1.5386,-1.5386,5.6411,4.1025,16.9229,-3.0771,9.231,
-32.3076,16.4102,-9.231,-25.1284,-21.5386,9.2305,-12.8208,2.0513,-2.0513,3.0767,5.6406,15.3843,-3.0771,13.333,
-28.2053,18.9744,-4.6155,-20.5129,-14.3591,10.7693,-8.2053,1.5383,-1.5383,5.1282,4.1023,14.8718,-4.1028,25.1282,
-36.4104,17.4358,-8.718,-18.4617,-9.7434,3.5896,-11.282,1.5383,-1.5383,3.5896,2.051,7.1794,-1.5383,17.9485,
-42.3076,14.6155,-11.5383,-26.4104,-14.1028,0.76929,-12.0515,-5.3845,3.8459,-0.76929,4.3591,1.7947,2.3079,4.3591,
-40,15.3845,-12.3079,-29.2307,-5.1282,8.718,-15.3845,-4.6155,1.0256,3.0769,1.5383,11.7952,-1.0256,7.1794,
-42.3076,12.0515,-12.5642,-30.5129,-5.8972,0.76929,-14.6155,-1.7947,0.25659,1.7947,1.7947,14.6155,-0.25659,11.5383,
-42.8203,16.1538,-11.5386,-30,-12.564,-0.25635,-10.5127,-1.2817,5.8975,0.25635,10.5127,11.5386,5.3848,19.231,
-44.3591,19.7434,-12.0515,-27.9487,-12.0515,14.1023,-13.0769,-1.7947,0.76929,-0.76929,10.5129,7.9485,3.3333,17.1794,
-42.051,19.4873,-2.0513,-17.9487,-4.1025,12.8208,-10.769,0,-3.0767,4.6157,6.667,10.2568,0,2.1794,
-40.769,19.231,-2.3076,-8.4614,4.3594,1.7949,-15.6406,0.25635,-8.4614,11.5386,-0.25635,19.7437,-8.4614,11.5386,
-38.2051,17.6921,-4.8718,-7.4358,4.3591,5.3845,-14.1023,-2.3079,-3.3333,5.8977,2.3079,15.6409,-7.4358,26.5386,
-37.6924,17.6924,-2.3076,-10,-5.3848,13.0767,-9.4873,-0.25635,5.3843,-1.2822,10.5127,10.5127,0.25635,13.5898,
-48.2051,14.8718,-11.282,-14.3586,-18.4612,5.6414,-16.4099,1.0256,3.0769,1.0256,9.7439,10.7693,-1.0256,-1.4102,
-48.2051,12.3079,-9.7439,-12.8206,-13.8464,1.5383,-14.3591,-2.5642,4.6155,4.6155,11.282,3.0769,3.0769,-1.5383,
-43.5898,13.3333,-6.1541,-11.7952,1.0256,8.718,-14.3591,-2.0515,-0.51294,1.5383,8.718,-3.5896,0.51294,7.1794,
-37.4358,16.9233,-5.6406,-11.7949,1.0259,8.7183,-11.2817,0,0,-2.564,8.7183,-4.1025,1.0259,11.7949,
-32.0513,20.7693,-1.282,-5.8972,-0.76929,7.4358,-6.4099,-0.76929,6.4104,-0.76929,11.0256,0.76929,4.8718,8.9744,
-41.7949,17.1794,-6.9231,-5.3845,-0.76929,7.4358,-15.1282,-2.3079,-0.25659,2.3079,6.9231,8.4617,0.25659,3.8459,
-46.4104,9.4873,-10,-12.5645,-11.5386,4.3589,-18.7183,-7.9487,-0.25635,5.3843,8.4614,13.5898,0.25635,10,
-35.6411,11.5383,-8.9744,-15.1282,-8.9744,4.3591,-17.6921,-8.4617,-0.25659,5.8972,9.4871,12.5642,0.25659,18.718,
-27.6926,20.5127,-2.0513,-8.2056,6.0256,3.5894,-10.7695,-3.0771,1.5381,-0.51318,13.333,0,0,4.1025,
-27.6924,22.0515,5.6409,-1.5383,16.9231,1.5383,-3.5896,-5.6409,5.1282,-4.6155,15.3845,-10.2566,2.0515,-7.6921,
-29.7434,18.4617,0.51294,-2.0515,18.9744,5.1282,-8.2053,-9.2307,-2.5642,1.5383,7.1794,-0.51294,-2.0515,2.051,
-29.231,17.4355,-2.0513,-8.7183,14.3589,2.0513,-10.7695,-10.7695,-3.5898,5.1279,3.5898,11.2817,-4.6157,12.8203,
-28.9746,19.2305,0.25635,-10.5127,4.3589,-2.8208,-9.4873,-8.4614,-0.25635,8.9741,8.9741,15.1279,-1.2822,12.564,
-33.3333,20,-2.0513,-10.2563,-3.0767,0,-8.2051,-8.7178,2.0513,9.7437,12.3076,9.7437,4.1025,0,
-34.6155,17.1794,-4.8718,-11.5383,-0.76929,0.76929,-10.5129,-11.5383,2.8206,3.3333,10.5129,3.3333,1.282,-7.4358,
-32.051,16.6667,-5.3845,-6.9231,10.0002,6.9231,-19.2307,-8.4617,-2.8206,2.8206,6.4104,11.5383,-5.3845,7.5642,
-30.769,12.8208,-0.51269,-7.6924,10.7695,5.1284,-18.9741,-10.769,-7.6924,0.5127,1.5386,16.4102,-8.7178,22.5642,
-30.5127,18.7178,1.2822,-8.4614,13.0767,0.25635,-12.0513,-9.4873,-9.4873,2.3076,-0.25635,19.231,-10.5127,14.1025,
-35.1282,23.8464,-1.7947,-4.8718,13.0769,5.8977,-11.5383,-6.4104,-5.3845,8.4617,1.7947,23.3333,-8.4617,5.3845,
-37.9487,16.4104,-1.0256,-8.718,8.718,5.1282,-11.282,-8.718,-2.051,1.0256,4.1028,15.8977,-5.6409,8.2053,
-33.3335,18.4614,-0.51269,-14.3589,14.8716,3.0767,-6.1538,-5.6411,0.5127,-4.1025,12.3076,8.2051,-3.0771,11.2817,
-31.2822,22.051,-0.51294,-15.8977,16.4104,1.0256,0.51294,-8.718,3.5896,-7.6921,17.4358,-5.6409,1.5383,-3.7183,
-26.4102,22.3076,3.8462,-7.9487,21.2822,4.3589,-1.7949,-10,0.25635,-4.8716,11.5386,-5.8975,1.2822,-0.25635,
-29.2305,14.3589,-1.5386,-11.2817,17.436,2.564,-13.8462,-10.769,-9.2305,1.5386,4.1025,9.1025,-7.1792,14.7437,
-31.2822,14.8716,-1.5386,-14.3589,13.3335,1.5386,-10.2563,-6.6665,-3.5898,12.3076,9.231,24.1025,-4.6152,17.9487,
-36.4102,16.9233,-9.7437,-15.3843,16.4102,4.1025,-11.7949,-4.1025,-7.6924,8.7183,4.6157,34.3589,-7.1792,15.8975,
-35.1282,17.1794,-9.4871,-12.5642,17.1794,8.9744,-7.4358,-5.3845,-4.8718,2.3079,7.949,25.8977,-2.3079,20.7693,
-38.9744,16.4102,-3.0771,-11.7949,8.7178,6.1538,-5.1284,-8.2051,-0.5127,-0.5127,10.2563,15.8975,0.5127,17.436,
-43.0769,17.9487,-2.564,-7.1797,9.7437,1.0254,-5.1284,-0.51269,-2.564,-2.0513,7.6924,1.5386,0.5127,12.3076,
-37.9485,17.4363,2.5642,-3.0769,8.718,-4.1023,-1.0256,-1.5383,1.0256,-3.5896,9.7439,-8.7175,4.1028,8.718,
-38.2053,16.1538,6.4102,-1.7949,-0.25635,-2.3076,-4.8721,-7.436,0.25635,-0.76953,10.5127,0.76904,3.333,12.0513,
-46.4104,14.6155,4.8718,-1.7952,-5.3845,-3.8464,-5.8977,-5.3845,-0.76929,2.8206,9.4871,8.9744,0.76929,9.4871,
-52.3076,15.3848,0,-6.6665,-0.5127,-6.1538,-2.564,-5.1279,0.51318,7.1797,11.7949,13.8462,0,6.1538,
-55.8975,12.3074,-6.6667,-14.8718,0.51294,-2.5642,-6.6667,-13.3333,0.51294,5.6409,13.8459,17.4358,-0.51294,9.2307,
-53.3333,9.231,-2.0513,-20,-5.6411,-4.1025,-6.6665,-17.436,6.1538,2.0513,14.3589,10.769,3.5898,10.769,
-50.7693,11.7949,0,-17.436,-1.0259,-2.0513,-11.2822,-9.7437,0,7.1792,8.2051,15.3848,0,18.4614,
-54.8716,14.3591,-2.5642,-14.8718,4.1028,2.5642,-11.7947,-7.6921,-4.6155,6.1541,5.1282,19.4871,-3.5896,23.0769,
-58.2051,14.1025,-0.76904,-16.1538,-0.76904,2.8203,-7.436,-8.9741,1.2822,0.25635,10.5127,9.4873,-0.25635,15.1284,
-64.8718,11.0254,-3.8462,-20.769,-10.5127,0.76904,-12.0513,-10.5127,1.2822,3.3335,13.0771,3.8462,-0.76904,4.3589,
-72.3079,9.2305,-5.6411,-28.2053,-16.4102,-2.0513,-10.2563,-14.8721,4.1025,2.564,16.4102,8.2051,2.0513,2.0513,
-75.1282,9.4873,-10.5127,-28.4617,-13.5898,0.76904,-8.9746,-11.5386,5.8975,-0.76904,16.1538,14.1025,2.3076,12.0513,
-72.3076,5.1284,-9.7437,-25.1279,-15.8975,0.51318,-8.7178,-13.333,4.6157,0,10.7695,10.2563,0,11.7949,
-63.8462,8.4614,1.7949,-18.7178,-11.5386,-1.2822,-3.8462,-16.6665,0.76904,0.76904,6.4102,8.4614,-0.76904,5.3848,
-61.282,15.6411,4.3589,-12.564,-0.25635,2.3076,0.25635,-10,-3.8462,-0.25635,5.8975,7.9487,-0.76904,7.9487,
-61.7949,11.0256,0.76929,-17.6926,-11.0256,-0.76929,4.3586,-11.0256,1.7947,-6.4104,12.5642,-7.0513,1.7947,2.3074,
-60.2563,13.5896,-0.76929,-19.2307,-22.3079,1.282,2.3079,-12.5642,5.8972,-5.3845,14.1023,-11.5383,2.8206,0.76929,
-61.0256,17.436,-0.5127,-16.4102,-18.9746,1.5386,0.5127,-10.7695,6.1538,-5.6411,12.3076,-2.0513,4.1025,13.8462,
-58.4614,15.3845,0.51294,-16.4104,-11.282,-3.5896,6.1541,-9.7434,4.1028,-7.6921,14.3591,-0.51294,4.6155,17.4358,
-57.6921,15.6411,-3.8462,-14.6152,-14.1025,-0.25635,0.76953,-8.9741,-1.2817,0.25635,13.5898,9.4873,0.76953,7.436,
-61.5386,13.8459,-0.51294,-13.8464,-27.1794,-1.5383,-1.5383,-13.3333,3.5896,10.7693,12.3079,23.0769,0.51294,1.5383,
-61.5386,12.8206,0.51294,-13.8464,-12.1794,-4.1028,-0.51294,-15.3845,1.0256,9.7434,9.2307,22.5642,-0.51294,12.8206,
-57.4358,13.3335,-6.1538,-15.8975,2.8206,-5.1279,4.1025,-11.7949,-2.0513,-1.5386,9.7437,7.5642,1.5386,19.4873,
-53.5898,12.0513,-1.2822,-21.2822,17.8206,-15.6411,15.6411,-15.6411,5.3848,-6.9233,13.5898,-2.3076,6.9229,4.4873,
-58.2051,10,-1.7949,-24.3589,32.8206,-25.3848,11.5386,-20.769,1.2822,-0.25635,11.0254,1.7949,0.25635,-10.5127,
-59.7437,8.9744,-5.3845,-21.7947,47.8206,-25.3845,8.4617,-18.2053,1.282,4.8718,13.0769,4.8718,-1.282,-4.8718,
-64.3589,3.3335,-13.0767,-25.3843,46.4102,-26.9229,3.8462,-21.2817,2.8208,-2.3076,13.5898,6.9233,-3.333,2.3076,
-68.9744,3.3333,-15.1282,-30.5129,42.3079,-28.9744,3.8459,-25.3845,2.3079,-2.3079,13.5896,6.9231,-2.3079,6.9231,
-65.1282,5.6409,-8.718,-31.7949,48.2053,-31.7949,9.7434,-25.6409,4.6155,1.0256,13.8464,-1.0256,2.5642,-1.5383,
-60,9.2307,-9.2307,-28.2053,50.2561,-31.2822,6.1536,-24.1028,1.5383,2.051,11.282,3.5896,-1.5383,-8.718,
-58.4614,9.7437,-8.7178,-27.1792,38.4619,-32.8203,6.1538,-27.1792,3.5898,2.0513,14.3594,9.7437,-2.0513,-5.1279,
-62.0513,5.1279,-8.2051,-30.2566,27.1792,-35.8975,6.6665,-28.2051,5.6411,0,14.3589,0.51269,-1.5386,0,
-62.5642,7.1792,-7.1797,-24.6152,28.2051,-31.2822,5.6411,-21.0259,5.1279,3.0767,11.7949,0,0,-2.0513,
-61.2822,7.4358,-4.8718,-21.7952,22.8206,-34.6155,3.8459,-25.3845,3.8459,0.76929,7.9485,5.3845,-0.76929,-9.4871,
-62.0513,3.5896,-8.718,-25.6409,23.0769,-37.9487,-1.0256,-26.1536,1.0256,3.5896,6.6667,8.718,-5.1282,2.5642,
-64.3589,-0.25635,-8.4614,-30,25.8975,-37.1794,0.25635,-23.333,4.3589,13.0771,12.5645,13.0771,-3.333,15.1284,
-64.6155,0.51294,-5.1282,-28.2053,18.9744,-33.8462,-0.51294,-27.6921,5.1282,13.8459,15.8972,12.3079,-0.51294,5.6409,
-65.6411,0.5127,-9.7437,-28.2051,13.8462,-30.7693,-0.5127,-28.2051,5.6411,8.2051,18.4614,4.6152,5.1284,-4.1025,
-66.4104,-0.76929,-9.4871,-30,16.1536,-35.1282,6.9231,-23.8462,13.0769,7.4358,23.3333,0.76929,12.051,-0.76929,
-73.5898,-0.76904,-13.5898,-30.5129,14.1025,-38.718,-1.2822,-24.8716,3.8462,3.8462,15.1284,0.76904,2.3076,1.7949,
-72.8206,3.0769,-11.282,-27.1794,10.2566,-32.8206,-1.5383,-23.5896,2.5642,-0.51294,14.8718,1.0256,0.51294,0.51294,
-68.2053,4.1025,-5.6411,-26.6667,12.3076,-29.7437,2.564,-20.5127,10.2563,0,21.5386,0,6.6665,-0.5127,
-69.7437,4.1025,-9.7437,-27.6924,14.8716,-32.3079,-2.564,-18.9746,7.1792,0,18.4614,0,6.6665,3.5898,
-65.3845,4.8718,-4.8718,-24.8718,4.8718,-32.564,1.282,-16.6667,10.0002,-1.282,19.7439,-1.282,8.9744,5.8977,
-63.3333,4.8721,-1.7949,-24.8718,4.3589,-31.5383,-0.76904,-16.6665,5.3848,0.25635,17.1797,-0.25635,3.8462,2.8208,
-60.5129,6.1538,-0.51269,-24.6152,19.3589,-31.7949,-2.0513,-21.0259,1.0254,1.5386,11.2817,0.5127,0.5127,-3.0771,
-55.8972,7.1797,3.0771,-23.5894,26.1538,-34.3589,4.1025,-24.1025,4.1025,-2.0513,12.3081,-3.5894,2.0513,-3.5894,
-60.0002,8.2048,-1.0256,-23.5901,18.4612,-31.7952,1.0256,-22.0515,4.1023,-2.5642,14.8713,-6.1541,1.0256,1.5383,
-62.0513,10.769,2.564,-24.6155,17.436,-28.718,3.5898,-24.1025,9.231,-2.564,16.9229,-10.2563,5.1284,-2.564,
-57.4358,10.2566,3.5896,-24.1023,27.1794,-28.718,4.1028,-25.1282,5.6409,-3.5896,12.8206,-5.6409,4.1028,-3.5896,
-54.1028,7.4355,-0.25635,-19.231,27.9487,-29.4873,0.76904,-20.2563,3.333,-3.3335,11.5381,-0.76953,2.8203,0.25635,
-55.6411,7.9485,1.7947,-19.2307,22.8206,-33.0769,1.7947,-20.7693,6.4104,-4.8718,14.6155,-1.7947,4.8718,-1.7947,
-60.7693,7.9487,-4.3589,-24.3589,15.6411,-31.5386,-1.7949,-23.8462,2.3076,-6.4102,9.4868,1.7949,1.7949,6.4102,
-61.5386,7.6921,-6.1541,-23.0769,0.64111,-31.2822,2.5642,-24.1028,9.2307,-3.5896,15.8972,4.1023,6.6667,13.8459,
-62.8203,6.9231,-5.3845,-21.7947,-14.3589,-35.1282,1.282,-23.8462,7.949,-0.76929,18.718,0.76929,3.8464,4.8718,
-60.7693,7.9487,-3.8462,-20.2563,-13.5898,-31.5386,0.76904,-19.231,5.3848,0.25635,15.1279,1.7949,3.3335,-0.25635,
-57.6924,7.9487,-1.7949,-19.7437,-8.4614,-27.436,6.9229,-19.231,10,-0.25635,12.564,5.3848,7.9487,0.25635,
-61.282,5.3845,-7.949,-22.8206,-14.1028,-28.9744,-0.25659,-22.3079,1.7947,0.25659,7.4358,3.8459,0.25659,5.3845,
-59.4873,5.6411,-5.1284,-23.5898,-19.4873,-33.8462,-1.5386,-22.564,2.564,1.5386,10.2563,1.5386,2.0513,11.2817,
-55.3848,8.2048,-3.0769,-19.4871,-16.4104,-30.7693,-1.0256,-22.0515,6.1536,1.0256,12.3074,1.5383,6.1536,8.2048,
-53.8464,9.7434,-4.1028,-13.8464,-4.6155,-20.5129,-1.0256,-17.949,4.615,2.051,11.282,1.0256,2.5637,3.0769,
-50.7693,7.6924,1.5386,-13.3335,-2.564,-19.4873,3.0771,-17.9487,8.7178,-0.5127,13.8462,-1.5386,3.5898,0.5127,
-55.6411,9.4871,-0.76929,-14.1028,-10.0002,-22.8208,-0.76929,-17.6926,8.4612,0.76929,13.5896,1.282,7.4358,3.8459,
-58.4617,10.769,-0.5127,-11.7949,-15.3848,-26.1541,0.5127,-17.436,9.2305,5.6411,16.9229,-0.5127,9.7437,12.3076,
-54.1025,3.8464,2.3079,-12.051,-12.051,-32.564,-0.76929,-21.7947,4.3591,1.282,13.0769,-4.3586,0.76929,14.1028,
-51.2822,5.6406,0,-12.3081,-1.0259,-30.2566,0,-16.9233,5.1279,-1.0259,10.2563,0,0.5127,5.1279,
-52.8206,11.7949,2.564,-12.3076,-4.6152,-26.1538,5.6411,-12.8203,11.7949,-2.0513,14.3589,-2.564,10.769,2.0513,
-55.8975,10.7693,-0.51294,-10.2566,-11.282,-27.6924,2.0515,-15.3845,5.6409,0.51294,13.3333,-4.6155,7.1794,7.6921,
-58.4617,4.1025,-6.667,-10.2568,-11.7949,-34.8721,2.0513,-22.0513,3.0767,4.1025,11.7944,-2.0513,2.564,2.564,
-58.2051,4.8716,-2.8203,-10.5127,-17.6924,-40.7693,-0.76904,-23.3335,6.4102,3.3335,10.5127,0.76904,2.8203,5.8975,
-54.1025,9.4873,1.7949,-8.9741,-16.1538,-34.6152,-4.3589,-18.2051,4.8721,-1.7949,8.9746,2.3076,2.8208,14.6152,
-50.769,8.718,1.0256,-13.3333,-1.1538,-26.6663,2.0515,-18.9744,4.6155,-8.2048,6.6667,-5.6409,4.6155,5.6414,
-50.2566,10.2561,-1.5383,-13.8464,13.8462,-22.0515,3.0769,-17.4358,2.051,-5.6414,6.6667,-9.7439,5.6409,1.5383,
-47.1794,7.1794,-0.51294,-11.282,14.3591,-26.6667,0.51294,-21.0256,1.5383,-7.6921,9.7434,-15.8972,4.1028,4.1028,
-36.1538,11.0254,6.9229,-8.9746,-0.64087,-23.3335,6.9229,-21.2822,1.7949,-10.5127,7.436,-20.2563,1.7949,1.7949,
-21.1538,25.3848,10.5127,-5.3848,14.3591,-8.3335,12.564,-14.1025,-1.2822,-4.8721,3.8462,-17.6924,4.8716,1.2822,
-10.0002,27.9485,10.5129,-7.4358,29.3591,-3.3333,11.5383,-16.1541,1.282,-9.4871,7.4358,-24.3591,11.5383,-1.282,
-5.8975,28.4614,6.9229,-4.3589,44.3591,-6.4102,12.0513,-8.9746,-1.2822,-16.1538,4.3589,-26.9231,8.9741,1.2822,
-2.8206,35.1282,10.0002,0.76929,59.3591,-0.76929,16.1541,-1.7947,-8.9744,-17.1794,-4.8718,-22.3074,2.8206,2.3079,
6.4104,33.5896,13.5896,-3.3333,74.3591,11.5383,7.4358,-10.5129,-13.0769,-19.7439,-11.0256,-16.6667,-2.8206,2.8206,
15.8975,36.4102,14.8716,0,89.3591,26.1538,-2.0513,-8.2051,-5.6411,-14.3589,-4.1025,-5.6411,0,17.8206,
8.7178,35.8975,13.8462,-0.5127,104.3591,11.7949,0.5127,-14.8721,-5.6411,-17.9487,-1.5386,-18.9746,-0.5127,9.231,
10,35.1284,10.5127,-0.76904,119.3591,8.9746,0.76904,-15.1284,-11.5386,-16.1538,-0.76904,-20.769,-2.8203,2.3076,
7.1794,28.2053,4.1028,-5.6409,134.3591,17.949,-7.6921,-7.6921,-9.7434,-12.3074,1.5383,-9.7434,-1.5383,7.6926,
-7.8206,22.564,7.1797,-6.1538,149.3591,13.8462,-13.3335,-8.2051,-2.0513,-14.3589,3.5898,-10.769,2.0513,12.3076,
-22.8206,17.9485,10.2566,1.5383,134.3591,4.1023,-28.3335,-13.3333,-4.6155,-6.6667,1.0256,-1.0256,-1.0256,27.3076,
-37.8206,10.2563,11.2817,0,119.3591,-8.7183,-34.8721,-19.4873,-3.0771,0,0.5127,11.7949,-0.51318,33.333,
-33.5898,12.051,8.4617,-3.8464,105.8972,-11.0256,-30.0002,-19.2307,-2.3079,-0.76929,3.8459,6.9231,0.76929,18.333,
-33.8462,15.8975,5.1279,0.5127,120.8972,-6.1538,-45.0002,-11.7949,-0.5127,-5.1284,11.2817,-7.6924,4.6152,11.7949,
-48.8462,6.1538,4.1025,-4.1025,105.8972,-16.9233,-60.0002,-15.8975,4.1025,-18.4619,9.2305,-22.6924,6.1538,13.8462,
-57.1797,8.9741,7.4355,-5.8975,99.7437,-16.1538,-70.5129,-17.6924,5.8975,-15.1284,9.4868,-22.3079,7.9487,20.2563,
-50.2563,10.2566,7.1794,-6.1541,114.7437,-15.3845,-66.1538,-19.4873,4.6155,-4.6155,12.8206,-10.7693,11.7947,19.9998,
-49.4873,3.8459,4.8718,-5.3845,129.7437,-23.3335,-76.1538,-21.282,1.282,-1.282,5.8972,-1.7947,9.9998,18.2053,
-52.3076,5.6411,10.2563,-1.5386,135.3848,-20.5127,-76.9231,-24.6155,-0.5127,0,0,8.7178,8.7178,25.1284,
-50.5127,3.3335,11.0259,-7.436,150.3848,-19.231,-78.2051,-32.564,-6.4102,-1.2822,1.2822,4.8716,2.8203,26.9233,
-50,2.3076,1.7949,-13.0771,165.3848,-20.7695,-85.3848,-25.8975,-7.436,1.7949,7.4355,0.25635,-0.25635,29.4873,
-59.2307,0.76929,-0.76929,-18.718,161.282,-26.9231,-83.3333,-22.8206,7.4358,3.3333,14.6155,-1.282,8.4617,31.5383,
-66.6665,-2.051,-1.0256,-21.0256,146.282,-29.7434,-83.5896,-30.2563,12.3079,5.6414,18.4617,1.0256,11.7952,33.3333,
-64.1025,2.564,-3.0771,-16.9229,154.3589,-21.5386,-82.0513,-26.1538,10.769,7.6924,22.564,-2.564,13.8462,26.1538,
-63.8462,1.7949,-1.7949,-15.6411,143.8462,-23.3333,-75.1282,-23.3333,11.5386,3.8462,21.2822,-9.4873,15.6411,13.0771,
-69.4871,-1.282,-4.3586,-18.2048,128.8462,-28.9744,-83.3333,-27.4358,1.282,4.8718,13.0769,3.3333,6.9231,24.3591,
-73.5898,-0.76929,-4.8718,-20.7693,113.8462,-32.0513,-88.9744,-33.0769,0.76929,6.4104,13.5896,13.5896,2.8206,27.4358,
-75.8975,-1.5386,-7.6924,-21.0259,121.0254,-32.3079,-85.6411,-35.8975,6.1538,1.5386,15.3848,6.1538,2.564,16.4102,
-74.6155,-1.2822,-13.0771,-19.7437,106.0254,-27.9487,-81.7949,-31.5386,6.9229,3.3335,13.0767,1.2822,5.3848,22.3076,
-68.7178,0.51294,-4.6155,-21.0256,91.0254,-28.2051,-73.3333,-28.2051,13.8464,6.1541,18.4617,-0.51294,13.8464,25.1282,
-68.9741,1.282,-2.8206,-22.8203,76.0254,-28.4614,-73.5896,-25.8972,11.0256,2.3079,19.2307,-1.282,13.0769,18.2053,
-69.7439,0,-3.0771,-18.9746,81.0254,-27.6926,-70.7695,-25.6414,6.1538,0,13.333,0,10.769,16.9229,
-73.3335,-3.5896,0.51294,-17.949,66.0254,-29.2307,-73.3335,-29.7434,0.51294,-0.51294,4.6155,3.5896,3.0769,23.0769,
-74.8716,1.5388,-3.5896,-18.4612,51.0254,-21.5383,-77.9485,-27.1794,-1.0256,3.0769,5.1282,12.8206,1.0256,26.6667,
-73.0771,0.76929,-8.9744,-23.8464,43.3333,-24.8718,-72.5642,-31.0259,2.3074,-0.76929,9.4871,6.9231,3.8459,14.6155,
-73.3335,-3.0769,-5.1282,-23.0769,29.2307,-31.2822,-68.718,-28.2053,5.6409,3.0769,13.3333,5.6409,4.6155,12.3074,
-80,-5.6411,-5.1284,-22.0513,14.2307,-30.7693,-68.2051,-23.5898,9.7437,8.2051,17.9487,5.1284,8.7178,18.9746,
-74.1025,-0.76929,-6.4104,-25.3848,18.718,-25.3848,-62.3079,-24.8718,12.5642,4.3591,18.2048,0.76929,14.1023,19.2307,
-64.3589,-0.25635,-8.4614,-26.9231,33.718,-24.3589,-60.2563,-28.4614,2.8208,0.25635,11.0259,5.8975,6.9233,13.0771,
-63.0769,-6.6665,-2.564,-24.6152,18.718,-26.6665,-56.4102,-30.2563,2.564,3.0771,10.2563,15.8975,5.1284,14.8721,
-66.9233,-5.3848,-2.3076,-23.3335,3.718,-25.3848,-59.231,-26.9233,4.8716,10.5127,11.0254,20.769,8.9741,21.2817,
-67.9485,-3.8462,-7.9487,-29.4871,14.6157,-25.3845,-61.7947,-25.8972,3.8462,10.5132,14.1025,14.6157,14.6157,23.3335,
-64.8718,-3.3333,-5.8977,-32.0513,19.7434,-28.9744,-56.6667,-28.4617,8.9744,3.3333,19.2307,6.4104,17.6921,22.8206,
-63.3333,-3.3333,-7.4358,-26.9231,6.9231,-27.4358,-57.1794,-26.4102,5.3845,3.3333,14.1028,9.4871,12.5642,22.3079,
-56.1538,-4.8718,-2.8206,-22.8206,2.8206,-26.9231,-55.6411,-24.3591,3.8459,7.4358,11.5383,17.6921,11.5383,19.7434,
-50.2563,-3.5894,0,-19.4868,11.2822,-26.6665,-57.9485,-23.0767,0,5.6411,10.7695,21.5386,9.7437,18.4619,
-48.2053,0,-3.5898,-13.3335,12.3076,-24.1028,-57.436,-22.564,0,4.1025,12.8203,18.4614,8.7178,19.4873,
-46.4104,-3.3333,-2.8206,-16.1541,5.3845,-26.4104,-48.9744,-25.3848,5.8972,2.8206,14.1023,12.5642,11.0256,22.3079,
-46.1541,-4.6155,-5.6414,-21.0259,4.6155,-26.1541,-51.7949,-22.5642,6.6667,6.1536,13.3333,14.3586,11.7947,22.051,
-44.1025,-2.5642,-5.6409,-18.9744,2.5642,-24.1025,-50.7693,-22.0513,11.282,6.1541,17.4358,12.3079,14.8718,9.7434,
-40.7693,-2.8206,-3.8464,-18.2053,5.3845,-25.8975,-45.3848,-25.3848,8.9744,2.8206,13.0769,10.5129,11.0256,6.4104,
-39.4873,-1.5383,-2.5642,-18.9744,14.3586,-27.6924,-44.1028,-25.1284,3.5896,1.5383,8.718,16.4099,8.2048,21.0256,
-37.6921,-2.8203,-0.25635,-19.2305,10.5127,-30.5127,-44.3589,-26.9231,7.436,0.25635,11.5386,14.6157,11.0259,23.3335,
-36.9231,-2.5642,-5.1282,-17.9485,4.1028,-24.6155,-42.5642,-24.6155,8.2053,2.5642,13.8459,9.7434,9.7434,17.4358,
-35.8975,-3.0769,-4.6155,-21.0259,3.5896,-24.1028,-32.3079,-20.5129,13.8459,3.0769,17.9485,4.1023,13.8459,15.8972,
-31.5386,-5.3845,-2.3079,-24.3591,11.0256,-27.436,-34.1025,-18.2053,10.5129,2.3079,15.6409,9.4871,13.0769,20.2566,
-27.4358,-3.3333,-4.8718,-18.718,17.6921,-16.1536,-38.7178,-18.2048,3.3333,5.3845,14.1028,19.2307,10.0002,25.3845,
-22.564,-1.5386,-2.0513,-14.3589,15.8975,-8.7178,-28.2051,-21.5383,7.1797,1.5386,18.9746,16.4102,15.3848,21.5386,
-17.6924,-0.25635,-3.8462,-16.6665,20.2563,-11.0259,-26.4104,-18.7178,4.3589,0.25635,13.5898,15.1279,11.0254,21.7949,
-16.9231,-3.0769,-6.6663,-22.5637,19.4875,-16.9231,-29.2307,-18.9744,5.1282,3.0769,6.6667,17.4363,3.5901,20.5129,
-18.2053,-2.8206,-6.9231,-23.3333,11.5383,-17.6926,-32.0515,-22.3079,8.4612,2.8206,4.8718,14.1023,2.8206,11.0256,
-16.4104,-2.5642,-6.6667,-21.0256,14.3586,-12.8206,-33.3335,-20.0002,5.1282,2.5642,6.1536,8.2048,7.6921,16.4099,
-12.3076,-2.564,-2.0513,-24.1025,20.5127,-11.7949,-24.6155,-21.0254,7.1797,2.0513,12.8203,7.1797,13.3335,24.6152,
-13.3335,-0.5127,-4.6152,-26.6667,21.5386,-13.8462,-25.1284,-20.5127,4.1025,0.5127,15.8975,12.3076,6.1538,21.5386,
-9.7437,0.5127,-1.5386,-22.564,23.5898,-13.3335,-26.1538,-14.3589,2.564,-0.51269,13.8462,11.7949,1.0259,20.5127,
-5.3845,0.76929,1.7952,-21.282,19.7439,-7.4358,-24.3586,-17.6921,0.76929,-0.76929,9.4871,2.8206,-0.76929,21.7952,
-7.949,0.25659,-7.4358,-25.8972,14.1028,-5.3845,-25.3845,-19.2307,0.25659,0.25659,8.9744,5.3845,-0.25659,15.6409,
-4.3589,-1.7949,-7.9487,-30.0002,14.1025,-14.1025,-20.2563,-18.2051,5.8975,1.7949,11.0254,14.6152,4.8716,13.0767,
3.3333,-0.76929,-1.282,-26.4104,18.2053,-10.0002,-24.3591,-17.6921,-0.76929,6.9231,5.3845,16.1541,0.76929,25.8972,
5.8977,2.3079,-0.76929,-20.7693,14.6155,-3.3333,-27.9485,-17.1794,-3.8459,3.8464,0.76929,13.0769,-2.8206,26.4104,
6.1541,3.0769,-4.6155,-19.4871,13.8464,-12.3079,-26.1536,-19.4871,0.51294,-7.1794,2.0515,11.7952,-0.51294,13.8464,
9.4873,3.8462,-6.4102,-20.769,25.8975,-18.2051,-26.9229,-16.1538,-1.7949,-10,5.3848,6.4102,1.7949,12.0513,
14.3589,3.5898,-0.51269,-23.5898,21.5386,-15.3848,-23.5898,-17.436,0.5127,-11.2822,8.2051,-5.6411,6.1538,14.8716,
11.0254,1.7949,-4.3589,-26.9231,11.0254,-13.5898,-26.9231,-18.2051,2.8203,-7.9487,5.3848,-1.7949,4.3589,20.769,
1.2822,-5.3848,-15.6411,-30.5129,3.3335,-21.7949,-32.0513,-19.231,1.7949,-0.25635,3.8462,0.25635,0.76904,13.0771,
7.1792,-4.1025,-8.7183,-27.1797,4.6152,-24.1025,-22.564,-17.436,4.6152,2.564,8.7178,-2.564,4.1025,6.6665,
13.8459,2.051,-3.0769,-24.1028,18.4617,-16.9231,-22.0515,-15.3845,-0.51294,-1.0256,5.6409,6.6667,0.51294,11.282,
17.1797,0.25635,-2.3076,-24.3589,33.4617,-17.1792,-23.333,-17.6924,-0.25635,-3.8462,6.4102,12.0513,1.2822,12.5645,
21.2817,-1.7949,-5.3848,-24.3589,35.1279,-17.6924,-23.3335,-18.7183,1.7949,-2.3076,11.5381,7.4355,4.8716,14.1025,
16.9229,-2.564,-11.2822,-29.231,20.1279,-17.436,-25.1284,-18.9746,3.0767,-2.564,13.333,2.564,3.5898,9.7437,
18.9746,-3.5898,-3.5898,-27.6924,9.7437,-21.0254,-16.9229,-18.9741,7.1797,0,15.8975,6.6665,4.6152,0,
28.4614,0.25635,-0.25635,-20.769,24.7437,-20.769,-12.0513,-17.6924,-1.2822,3.3335,9.4873,11.0254,3.3335,-1.7949,
34.8718,4.6155,1.5383,-19.9998,37.4358,-18.4617,-8.2053,-17.9485,-1.5383,-2.051,7.6921,1.0256,6.6667,-1.0256,
37.1797,4.8716,2.8203,-19.7437,33.5898,-18.7178,-10,-16.6665,4.8716,-5.3848,10,-2.8203,7.9487,-3.3335,
36.9229,2.564,-2.0513,-16.4102,29.7437,-21.5386,-10.7695,-16.4102,2.564,-3.5898,6.1538,1.5386,6.1538,-1.5386,
39.7437,3.3335,-0.25635,-16.6665,28.4614,-24.3589,-7.4355,-15.6411,0.25635,-5.3843,3.8462,-1.2817,5.3848,0.76953,
42.8203,6.4102,-2.8203,-14.6152,32.564,-20.769,-12.564,-12.0513,-1.7949,-1.7949,5.3848,6.9229,1.7949,7.436,
43.3335,1.2822,-5.3848,-14.1025,22.3076,-21.2822,-14.1025,-16.6665,-1.2822,2.8203,5.3848,19.7437,-2.3076,6.9233,
47.1794,0.51294,-0.51294,-12.3079,11.282,-17.949,-8.2053,-13.3333,-2.0515,7.1794,5.6409,21.0256,-4.1028,6.6667,
46.4104,0.76929,-1.282,-13.5896,8.9744,-15.6409,-7.9485,-11.5383,-4.8718,2.8206,3.8459,12.0515,-0.76929,14.1028,
46.1538,0,-2.0513,-15.3848,3.5898,-20.5127,-7.6924,-16.9229,0,-1.5386,5.6411,10.7695,5.1284,9.7437,
46.1536,2.051,-8.2053,-16.9231,5.6409,-21.5383,-9.7434,-13.8464,-1.5383,1.5383,4.6155,13.8459,2.051,-2.0515,
45.3845,1.282,-8.9744,-20.7693,8.4612,-22.8206,-3.3333,-15.1282,-0.76929,0.76929,5.3845,2.8206,2.8206,-6.9231,
48.718,1.0256,-1.0256,-18.9744,6.6667,-24.615,2.5642,-19.4871,3.5901,-1.5383,8.718,-4.1023,5.6414,-2.5637,
52.564,0.25635,-1.7949,-16.1538,11.5381,-23.8464,-0.25635,-14.1025,4.8716,-0.25635,12.564,0.76904,5.3843,-0.76953,
50.2563,-5.1284,-5.1284,-21.5386,9.7437,-31.7949,0,-17.436,4.6152,0,13.3335,0.5127,4.1025,-6.6665,
47.1797,-2.564,-7.6924,-25.1279,3.0771,-35.8975,-3.0767,-22.564,0.51269,3.0771,8.2051,6.1538,3.5898,-0.5127,
51.282,0.51294,-6.6667,-22.5642,-0.51294,-32.3079,-5.6409,-23.0769,1.0256,3.0769,4.6155,11.7947,5.6409,-2.5642,
58.4614,-2.0513,-0.5127,-13.333,8.7183,-26.1538,-4.1025,-19.4873,0.51269,3.0771,2.564,12.8208,0.51269,-4.1025,
61.5386,0,0,-4.6152,17.9487,-17.9487,-3.0767,-12.3076,-3.5898,4.1025,1.0259,11.7949,-3.5898,10.8975,
58.9746,0,-3.5898,-13.3335,12.3076,-21.5386,0,-15.3848,-1.0254,-4.1025,4.1025,0,2.564,4.6152,
57.6926,0.76929,-4.8718,-17.6921,11.0256,-21.282,0.76929,-16.1536,2.8206,-2.8206,7.949,-2.8206,6.4104,-0.76929,
52.564,-0.76953,-3.8462,-12.0513,11.5381,-18.2051,0.25635,-18.2051,3.333,-0.25635,6.9229,-3.8462,3.333,9.4868,
51.7949,-1.5386,-1.5386,-13.8462,9.7437,-21.0259,2.564,-20.5127,1.5386,-3.0771,4.1025,-3.0771,1.5386,3.0767,
59.7437,0.25635,-1.7949,-12.564,13.5898,-19.7437,1.7949,-8.9741,-0.25635,4.3589,5.8975,11.9229,-0.25635,-3.3335,
62.0513,-3.5898,-2.0513,-10.2563,8.7183,-17.9487,-0.5127,-7.1792,0.51269,7.6924,5.6411,24.6152,-3.0767,8.2051,
60.2563,0.25635,-0.25635,-12.0513,4.3589,-12.5645,-1.7949,-13.5898,-0.25635,2.8203,4.8716,9.6152,-2.3076,17.1792,
59.7437,3.8462,0.25635,-15.1284,-1.2822,-14.1025,1.2817,-16.667,1.2817,-1.7949,7.9487,-5.3848,2.3076,2.1792,
60.2566,0.25659,-0.25659,-14.1028,-3.8459,-21.282,5.3845,-13.5896,3.8459,0.76929,7.4358,-0.25659,4.3591,-7.9485,
55.6414,-2.3074,-6.4099,-14.6155,-2.3074,-18.2048,0.76929,-11.5383,-0.76929,6.4104,2.8206,13.5901,1.7952,3.8464,
51.5386,-5.3848,-8.4614,-19.7437,-11.0259,-20.2563,0.76904,-16.6665,1.7949,4.3589,4.8716,12.0513,3.3335,-0.76904,
54.6152,-4.3589,-8.9746,-15.6411,-11.5386,-20.7695,-0.25635,-15.1284,5.3843,4.8716,9.4868,13.5898,3.333,0.25635,
54.1025,-2.8203,-11.0254,-11.0254,-10,-17.6924,-2.3076,-13.0767,4.8721,10,13.5898,18.2051,2.3076,11.0259,
53.3333,-3.5896,-7.6921,-15.3845,-12.3079,-18.4617,-1.5383,-17.4358,5.1282,12.8206,15.3845,19.9998,1.5383,10.2566,
54.8721,0,-8.2051,-14.8716,-6.1538,-13.8462,-2.564,-15.8975,2.5645,15.3848,11.2822,25.6411,0,13.8462,
55.1284,-4.8716,-6.4102,-18.7178,-14.1025,-17.1792,-2.3076,-15.1279,2.3076,7.436,6.9233,16.1538,2.3076,15.6411,
57.6924,-7.436,-2.3076,-20.769,-21.2822,-20.769,-1.2822,-15.6411,1.7949,1.2822,6.9229,6.9229,1.2822,5.3848,
62.8208,0.25635,-0.25635,-15.1279,-6.2822,-12.564,0.25635,-11.5386,-0.76904,4.3589,7.9487,12.564,2.3076,-1.2817,
58.718,0.76929,0.76929,-19.2307,-2.8206,-14.6155,-0.76929,-12.5642,-2.3079,-1.7952,4.3586,7.4358,2.8206,5.3845,
55.1279,0.25635,0.76904,-19.231,-15.1284,-18.2051,-3.3335,-10.5132,2.3076,-0.76953,4.3589,-0.25635,3.333,20.3845,
58.7178,0.25635,1.2817,-16.667,-17.6924,-15.1284,-0.25635,-14.1025,9.4868,-0.25635,10,-5.8975,4.3589,12.564,
63.0769,1.0256,1.5383,-16.4104,-2.6924,-7.6921,-0.51294,-14.8718,3.5896,-2.5642,10.2566,-5.1282,1.0256,0.51294,
57.6924,2.3076,-2.8203,-17.6924,7.9487,-4.8716,-3.8462,-10.5127,-5.8975,4.8716,5.8975,9.8718,-2.3076,5.3848,
56.1538,0.76953,-2.3076,-19.2305,-3.8462,-7.9487,0.25635,-14.6152,-1.2817,11.0259,6.9233,24.8718,-0.25635,13.0771,
60.2561,3.3333,-0.76929,-16.6667,-4.8718,-4.3591,-0.76929,-16.6667,-1.282,7.4358,6.9231,28.4612,0.76929,19.7434,
57.4355,2.0513,0,-16.4106,-7.6924,-7.1797,0,-14.3594,-1.5386,-0.51318,4.1025,16.9229,2.0513,15.8975,
52.564,-0.25635,-0.25635,-19.231,-18.2051,-11.5386,0.76904,-15.6411,0.25635,-1.2822,2.3076,12.0513,0.25635,10.5127,
51.0256,-1.282,-3.3333,-20.7693,-12.051,-3.8459,1.7952,-14.1023,0.76929,5.3845,5.3845,14.6155,-0.76929,11.5388,
46.4106,-8.4614,-5.3843,-26.4102,-14.6152,-8.4614,6.9233,-18.7178,0.25635,3.3335,6.9233,8.4619,-0.25635,5.8975,
46.4102,-5.8975,-7.4355,-26.9229,-20.2563,-9.4868,6.4102,-16.6665,0.25635,3.3335,7.9487,10.5132,-0.25635,8.9746,
49.4873,-2.8203,-8.9741,-26.9229,-18.7178,-5.3848,3.8462,-14.1025,-0.25635,0.25635,9.4873,6.4102,0.25635,12.0513,
51.2825,-1.0256,-4.615,-21.0256,-13.8459,-2.5637,7.1794,-8.7175,1.0256,-1.0256,10.7693,5.1282,3.0769,11.7952,
47.6924,0,-5.6411,-15.8975,-17.436,-3.5898,4.6152,-4.1025,0,1.5386,6.6665,12.3076,0,16.9229,
51.2822,-0.5127,-4.1025,-17.9487,-22.564,-5.6411,5.1279,-7.6924,2.0513,-2.0513,6.1538,4.6152,0.5127,16.9229,
56.9233,2.564,-3.5898,-15.3848,-16.9229,-0.51269,8.2051,-7.6924,0.5127,-1.0254,7.6924,-3.5898,4.6152,8.7178,
52.564,0.25635,-5.3848,-14.6157,-22.3076,-4.3594,12.564,-8.4619,0.25635,-0.25635,11.0254,-12.0513,7.9487,3.333,
53.8462,0,-1.0254,-15.8975,-28.2051,-6.1538,17.436,-10.2563,8.7178,0,17.436,-14.8716,9.231,7.1797,
54.3589,-3.0771,-5.6411,-17.9487,-20.5127,-4.1025,10.2563,-7.6924,5.6411,3.0771,12.8203,-4.6152,3.5898,9.231,
58.4612,-1.0256,-2.5642,-15.385,-15.385,-4.1028,12.3074,-5.1287,5.6409,1.0256,12.3074,-2.0515,6.6663,9.7434,
61.0256,0.51294,0.51294,-15.8977,-20.5129,-4.1028,10.2561,-8.2053,-0.51294,-8.718,7.6921,-12.3079,1.0256,13.8459,
66.1538,4.1025,4.1025,-12.3076,-14.3589,0,9.2305,-3.0771,-1.5386,-2.564,7.1792,-6.1538,0,25.6411,
61.0256,0.51294,2.5642,-14.3591,-16.9231,-6.1541,5.1282,-5.6409,-3.0769,-0.51294,5.6409,-1.5383,0.51294,27.1794,
55.1284,0.76904,-2.8203,-15.1284,-25.3848,-5.8975,4.3589,-3.8462,-2.3076,0.25635,10.5127,-0.25635,2.3076,24.3589,
53.3335,-0.51269,-3.0767,-18.4614,-32.3076,-8.7178,8.7178,-6.1538,6.1538,0.5127,15.3848,-4.6152,3.5898,9.3589,
53.0769,-1.282,-4.3591,-22.8206,-23.8459,-11.5383,5.3845,-9.4871,6.4104,1.7947,9.9998,-10.5129,1.282,1.7947,
55.6411,-0.76904,-5.3848,-22.8203,-18.7178,-8.9746,6.4102,-4.8721,3.8462,0.76904,11.0254,-14.1025,4.8716,11.5386,
59.2307,-1.7947,-1.282,-17.1794,-25.8975,-7.4358,12.5642,-3.8459,5.8972,1.282,13.5896,-10.5129,7.4358,20.2566,
56.1541,-1.282,-3.8459,-16.6667,-26.4104,-2.8206,3.3333,-4.8718,0.25659,8.4617,4.8718,4.4871,-0.25659,31.0256,
54.8721,-2.564,-8.2051,-24.6152,-26.1538,-2.564,0,-7.6924,0,8.7183,4.6152,11.2822,0,27.1797,
60,-6.6665,-11.2817,-25.6411,-26.6665,-5.6411,0,-7.6924,0,5.1284,8.2051,5.1284,0.51269,15.8975,
61.5386,-2.564,-6.6665,-17.436,-20,-2.0513,0.5127,-3.0767,4.1025,10.769,10.2563,8.7178,-0.5127,16.9233,
58.718,-1.7947,-5.3845,-17.1794,-18.2048,-1.7947,0.76929,-7.9485,8.4617,13.5901,10.0002,13.0769,-0.76929,14.6155,
60,-3.5898,-15.3848,-20.5127,-16.4102,0.5127,-2.564,-7.1797,0.5127,15.8975,5.6411,13.3335,-0.5127,20.5127,
57.1792,-4.8721,-17.1797,-23.3335,-31.4102,-4.3589,-1.7949,-4.8721,1.7949,17.1792,6.9229,10,1.7949,31.0254,
54.8718,-3.0769,-8.7175,-22.051,-46.4102,-9.7434,-1.0256,-5.1282,9.7439,16.9231,13.3337,13.8464,1.0256,29.7439,
57.1792,-5.3848,-9.4873,-19.231,-31.4102,-5.3848,-1.7949,-10,1.7949,5.8975,11.5381,4.8716,1.7949,14.7439,
63.0767,-2.0513,-4.6152,-15.8975,-17.9487,2.0513,6.6665,-8.7183,2.0513,-2.564,12.3076,-10.1284,9.2305,5.6411,
60,2.0513,-4.6152,-13.3335,-28.718,-2.0513,3.5898,-5.1284,4.6152,-3.0767,10.2563,-6.6665,5.6411,13.3335,
61.0256,1.0256,-2.0515,-9.2307,-31.7949,-10.7693,7.6921,-6.6667,9.2307,-1.0256,13.8459,-1.5383,6.1536,18.9744,
58.9746,-7.1792,0.5127,-15.3848,-35.3845,-14.3589,8.2051,-13.3335,1.5386,-0.5127,7.1797,-6.1538,3.5898,11.7949,
60,-7.6924,-1.0254,-13.3335,-39.4871,-4.1025,4.1025,-5.1279,0,7.6924,4.6152,5.6411,0,10.2563,
61.5383,-8.2048,-2.5642,-13.3333,-38.4614,-6.1536,1.0256,-5.1282,4.6155,6.6667,5.6409,9.2307,-1.0256,14.3591,
58.9744,-4.1028,-0.51294,-13.3333,-36.4104,-6.1541,-1.0256,-6.1541,1.5383,6.6667,9.2307,2.051,0.51294,26.6667,
53.333,-5.6411,0,-14.3594,-49.7439,-2.0513,0,-3.5898,5.1279,5.6406,13.333,-4.6157,3.0767,21.0254,
52.0513,-9.4873,-2.8203,-18.2051,-51.0256,-6.4102,0.25635,-5.8975,5.8975,1.7949,9.4873,-0.25635,0.25635,8.4614,
54.1025,-5.3848,-4.3589,-14.1025,-37.6924,-4.8716,0.25635,-3.8462,2.8203,10.5127,11.5386,14.7437,-0.25635,23.4614,
52.8206,-7.1794,-3.0769,-16.4099,-43.0767,-6.6663,3.0769,-5.1282,3.0769,11.2825,15.385,15.385,-3.0769,29.7439,
54.3591,-4.1028,-5.6409,-18.9744,-43.5898,-3.0769,2.5642,-5.1282,3.5896,8.718,13.3333,8.718,-2.5642,16.9231,
49.7437,-4.6152,-9.231,-24.6152,-43.5898,-4.6152,0.5127,-9.7437,7.1792,9.7437,13.333,-0.5127,6.6665,13.333,
46.9229,-9.4873,-3.8462,-25.3848,-44.8718,-6.4102,2.8203,-10,12.564,14.1025,17.6924,-2.8203,13.5898,18.2051,
48.4614,-8.9746,-7.9487,-23.8464,-41.2822,-1.7949,-3.8462,-7.9487,6.4102,15.1279,16.6665,1.7949,3.8462,14.1025,
53.0771,-6.4102,-8.4614,-23.8462,-40.7693,-1.7949,-4.8716,-10,5.8975,11.0254,18.7178,7.436,1.7949,16.6665,
52.3079,-7.1794,-7.1794,-23.0769,-37.436,-3.5896,-3.0769,-11.7952,5.1282,8.2048,14.3591,9.2307,3.0769,29.7434,
51.5383,-6.9231,-6.9231,-25.3845,-34.6155,-1.7947,-1.282,-9.4871,1.7947,5.8972,8.4617,1.7947,1.282,26.4104,
57.6924,-4.3589,-3.8462,-27.949,-38.2053,1.7949,-0.25635,-4.8721,1.7949,0.25635,12.0513,-4.8721,1.7949,14.1025,
56.4106,-6.6665,-8.7178,-27.6921,-35.8972,2.0513,-6.1538,-4.6152,0,0,14.8721,0.51318,4.6157,15.8975,
52.564,-7.436,-4.8721,-27.9487,-33.5898,-2.8203,-2.3076,-11.0259,5.3848,4.8716,15.6411,2.3076,10.5127,18.7178,
52.3076,-5.1284,-1.5386,-26.6665,-35.8975,-4.6152,-5.6411,-12.8208,2.564,7.1792,11.7949,1.5386,2.564,19.4873,
58.4619,-1.5381,-0.51269,-18.4614,-31.282,0,-5.6406,-3.0767,2.5645,11.2822,11.7949,13.3335,0,31.2822,
59.4871,-5.6414,-1.0256,-21.5388,-31.7952,-3.5901,-2.0515,-5.1282,4.615,10.2561,10.7693,15.3845,1.0256,31.7947,
57.6921,-4.8718,-1.282,-23.3333,-25.8972,-3.3333,-5.8972,-8.9744,1.282,10.5129,10.5129,16.1541,1.282,29.9998,
53.3335,-7.1792,-0.5127,-23.5898,-26.6665,-5.1279,-7.6924,-12.8203,0.5127,6.1538,9.7437,7.1797,3.0771,21.0259,
52.8203,-9.231,-1.5386,-26.1538,-30.7693,-3.0771,-6.1538,-9.7437,1.5386,6.6665,8.7178,5.1279,3.0767,15.8975,
50,-8.4619,-7.436,-29.4873,-35.1284,-0.25635,-6.9233,-7.436,2.3076,7.9487,10,6.9229,0.25635,12.564,
49.231,-6.1538,-7.6924,-28.718,-33.3333,-2.564,-2.564,-10.769,8.2051,6.1538,12.3076,4.1025,2.564,15.3848,
50.7693,-4.6155,-8.718,-27.6924,-30.2566,-3.5896,-4.1028,-11.282,3.5896,7.6921,7.6921,9.7434,3.5896,29.7434,
50.7693,-7.1794,-9.7439,-30.2566,-38.4617,-3.0769,-5.1282,-10.2566,3.0769,8.718,8.718,7.6921,4.6155,26.1536,
47.1794,-9.2312,-10.7693,-31.7952,-40.0002,-1.0256,-10.7693,-11.2825,4.1023,9.2307,12.8206,1.0256,4.1023,11.282,
44.3586,-7.4363,-13.5901,-31.0259,-35.6411,-2.8206,-12.5642,-11.5388,3.3333,9.4871,12.5637,3.8459,2.8206,14.1023,
46.6667,-7.1794,-8.718,-30.2563,-43.0767,-8.718,-5.1282,-11.282,9.2307,7.1794,13.3333,5.1282,8.2053,21.0256,
46.4104,-7.4358,-9.4871,-24.3589,-47.9487,-5.3845,-7.4358,-8.4617,10.0002,10.5129,11.0256,5.3845,6.9231,20.7693,
42.564,-10.2563,-11.7949,-22.0513,-47.1797,-4.6152,-8.7183,-11.7949,8.7178,16.4102,10.2563,10.2563,4.6152,16.9229,
44.1025,-9.7437,-5.6411,-22.564,-42.5642,-4.6152,-5.1284,-11.2822,8.7178,19.4873,13.8462,18.4614,4.6152,23.0767,
45.6411,-9.7437,-4.6152,-21.0254,-43.5896,-2.0513,-7.6924,-6.6665,5.1284,13.3335,11.7949,15.8975,2.0513,26.1538,
45.1284,-10.769,-4.1025,-17.436,-58.4614,-6.6665,-7.1792,-12.8203,7.1797,8.7178,10.769,7.6924,4.1025,20,
45.6411,-6.667,-5.6411,-12.8208,-55.8975,-9.231,-6.667,-13.8462,8.7178,13.8462,15.3843,6.6665,5.6411,20.5127,
45.8977,-8.9744,-6.4104,-15.6409,-44.3589,-11.0256,-2.8206,-10.5129,10.5129,11.0256,16.6667,2.8206,8.9744,17.6921,
46.4104,-11.0256,-1.7947,-16.6667,-43.3333,-13.5896,-2.8206,-13.0769,11.5383,8.4617,12.5642,1.7947,9.4871,15.6409,
40.7693,-10.5129,-6.9231,-15.1282,-47.9487,-13.5896,-9.4871,-14.1028,8.4617,15.6409,15.1282,10.5129,6.9231,22.8206,
35.8972,-16.4104,-9.2307,-18.9744,-57.9487,-17.949,-8.718,-15.3845,9.2307,13.8459,21.0256,15.3845,8.718,18.4617,
37.436,-15.3848,-7.1797,-18.4614,-54.8718,-17.9487,-8.2051,-12.3076,7.1797,10.2563,18.9746,20,7.1797,14.8721,
37.6924,-12.0513,-7.9487,-17.6924,-47.9487,-17.1792,-5.3848,-11.5386,6.9233,11.0259,18.2051,15.1284,5.3848,20.2563,
31.7952,-17.4358,-10.7693,-22.5637,-57.9485,-24.1025,-4.6155,-17.4358,6.6667,7.1794,17.949,4.6155,4.6155,18.4617,
32.0515,-16.6663,-12.051,-21.7947,-62.3076,-22.8203,-6.9231,-14.1023,6.9231,11.0256,21.7952,11.5388,10.0002,19.7439,
32.5642,-18.2053,-14.6155,-25.8975,-64.8718,-27.436,-7.4358,-17.6921,8.9744,7.9485,21.282,7.4358,8.4617,20.2566,
33.0767,-12.564,-11.5386,-22.8206,-63.3335,-23.8462,-5.3848,-15.6411,10,7.436,18.7178,5.8975,5.3848,20.769,
32.3076,-10.769,-8.2051,-22.0513,-67.6921,-21.5383,-6.1538,-12.3076,8.7183,6.1538,16.4102,6.667,8.7183,9.7437,
38.718,-12.051,-5.8972,-23.8462,-64.3589,-19.7437,-4.3591,-12.051,11.5383,6.4104,18.2053,4.3591,14.6155,8.4617,
37.436,-13.3335,-12.3076,-23.5898,-63.0769,-13.8462,-7.6924,-10.2563,10.2563,13.3335,15.3848,7.6924,9.231,21.0254,
34.8718,-14.3591,-10.2566,-24.6155,-72.3076,-14.3591,-7.6921,-10.7693,14.3591,18.9744,14.3591,17.4358,7.6921,23.0769,
35.8975,-12.8208,-9.7437,-30.2566,-72.3079,-14.8721,-9.7437,-11.7949,14.3589,21.0254,14.3589,23.5898,9.7437,18.9741,
27.6924,-15.8975,-19.4873,-35.3848,-74.8718,-11.7949,-13.3335,-11.7949,12.8203,18.9741,17.9487,16.4102,11.7949,12.8203,
27.1792,-16.4104,-13.3335,-30.2566,-77.436,-8.2051,-8.2051,-11.2822,18.4614,19.4868,23.5894,10.2563,15.8975,8.2051,
30.5127,-17.1797,-11.5386,-27.436,-68.9744,-9.4873,-11.0259,-12.0513,11.0254,18.2051,14.1025,16.6665,9.4873,14.6152,
33.8462,-17.9487,-13.8462,-29.2307,-63.5898,-7.1797,-8.2051,-10.769,7.1797,14.3589,11.2822,24.1025,9.231,24.1025,
30.769,-19.4873,-17.9487,-31.7949,-69.231,-4.1025,-10.2563,-9.7437,4.1025,10.2563,11.2817,20,5.1279,18.4614,
27.4358,-18.718,-19.7434,-30.5129,-70,-2.3079,-14.1028,-8.9744,4.8718,11.5383,10.5129,17.1794,2.3079,13.0769,
26.1538,-20.5127,-12.3076,-30.7693,-70.2566,-6.6665,-6.1538,-14.3589,9.7437,8.7178,12.3076,16.4102,6.1538,18.9741,
20.5127,-21.0259,-14.8721,-34.3591,-71.2822,-6.667,-4.1025,-15.3848,6.1538,6.1538,10.769,16.9229,4.1025,26.1538,
14.3591,-23.5896,-20.5125,-42.051,-82.564,-10.7693,-5.1282,-19.9998,10.2566,6.6667,11.282,12.8206,5.1282,11.7952,
17.436,-25.1282,-17.9487,-44.1025,-87.6924,-16.4102,-3.5898,-21.0254,12.8203,6.6665,13.3335,15.8975,7.1797,3.5898,
17.9487,-25.1284,-23.0771,-44.6155,-72.8206,-14.8721,-1.5386,-17.9487,2.0513,1.5386,8.7178,13.8462,2.0513,11.7949,
18.2053,-22.8206,-21.7947,-46.9229,-58.7178,-16.1536,5.3845,-18.718,3.8464,-0.76929,5.8977,6.9231,0.76929,12.5642,
17.9485,-23.5901,-24.1028,-46.6667,-60.0002,-18.9744,1.0256,-17.4363,5.1282,4.1023,3.5896,11.282,-1.0256,9.2307,
20.7693,-27.9485,-25.3845,-42.8203,-64.8716,-19.2307,0.76929,-17.1794,3.8464,5.8977,5.3845,13.5901,-0.76929,8.9744,
19.7437,-26.9229,-20.769,-42.8206,-63.3333,-16.1538,4.8716,-21.2822,1.7949,2.3076,3.3335,11.5386,-1.7949,7.9487,
15.1284,-23.3335,-20.769,-44.3589,-61.7949,-14.1025,2.8203,-17.6924,-0.25635,0.25635,2.3076,11.5386,0.25635,15.6411,
15.1284,-26.4102,-18.2051,-43.3333,-71.5386,-22.3076,2.3076,-17.1797,3.3335,-2.3076,7.9487,5.3848,4.8716,14.6152,
17.4358,-26.6667,-17.4358,-36.4104,-72.3079,-20.0002,-1.5383,-16.9231,3.5896,4.6155,8.718,14.3591,1.5383,5.6409,
15.8972,-28.2053,-15.3845,-35.8975,-72.8206,-16.9231,1.0256,-19.4871,6.1536,8.2048,5.1282,26.1536,-1.0256,1.0256,
15.1279,-32.0513,-16.667,-38.2053,-76.1541,-23.8462,2.3076,-22.3076,6.4102,3.333,2.3076,23.8462,-2.3076,10,
25.3845,-24.8718,-17.6921,-28.9744,-61.1541,-18.718,0.76929,-15.6409,7.4358,14.6155,7.949,37.1794,-0.76929,25,
28.718,-25.6409,-12.8206,-30.7693,-52.3076,-19.9998,2.5642,-16.4104,8.2053,16.4104,9.2307,42.0515,-2.5642,24.1028,
19.2307,-28.9744,-16.1536,-35.6409,-55.6409,-20.2561,4.8718,-15.1282,5.8977,10.0002,7.949,33.0769,-4.8718,9.1028,
14.1023,-28.9746,-22.3079,-39.231,-63.8462,-19.7439,5.3845,-13.0769,8.4612,7.4358,12.051,20.2561,0.76929,-0.76929,
16.1538,-28.9741,-20.769,-46.4102,-64.8716,-24.8716,0.25635,-16.1538,5.3848,4.8721,8.9746,15.6411,-0.25635,0.25635,
18.9746,-24.1025,-17.9487,-43.0769,-56.4102,-18.4614,0,-8.7178,4.1025,9.7437,9.231,24.6152,0,7.6924,
18.4617,-27.6921,-23.5896,-41.5383,-64.1025,-21.0256,1.5383,-15.8972,6.6667,4.6155,7.6921,16.9231,1.0256,-1.0256,
26.9231,-24.3586,-21.7947,-38.7178,-58.7178,-18.718,1.282,-18.2048,5.8977,7.4358,7.949,19.2307,2.8206,-1.282,
24.3591,-26.9231,-17.1794,-41.7949,-54.1025,-19.7434,-0.25659,-17.6921,0.76929,2.8206,8.4617,18.718,0.25659,0.76929,
22.564,-24.1025,-10.2563,-38.4614,-53.8462,-18.4614,4.1025,-14.3589,4.1025,-1.5386,11.7949,13.3335,1.5386,3.5898,
23.0767,-18.9746,-13.3335,-34.8718,-51.7949,-11.2822,0.5127,-10.2563,3.5898,4.1025,8.2051,21.5386,-0.51269,9.7437,
20.5125,-25.1282,-15.385,-39.4873,-58.9746,-15.385,1.0256,-13.3337,3.0769,3.5896,5.6409,26.6663,-1.0256,12.8206,
17.4358,-28.718,-14.8718,-43.0769,-59.4873,-19.4871,3.5896,-15.8977,2.051,1.5383,4.6155,22.5642,-1.5383,8.718,
16.9231,-24.615,-14.3586,-43.5896,-49.7434,-17.4358,4.6155,-15.8972,1.0256,4.1028,3.5901,19.4875,1.0256,-1.0256,
17.1797,-26.4102,-13.0771,-42.3076,-45.8975,-16.1538,2.8203,-15.6411,3.3335,0.25635,3.3335,12.564,-0.25635,0.76904,
19.4875,-26.6663,-14.3586,-34.3589,-39.4871,-10.7693,1.0256,-9.7434,3.5901,3.0769,5.6414,12.3079,-1.0256,12.8206,
19.2307,-28.4617,-12.0515,-34.6155,-40.7693,-16.6667,5.8972,-13.5896,3.3333,3.3333,5.3845,11.5383,0.25659,-0.25659,
19.2307,-27.436,-7.949,-33.0769,-40.7693,-18.2053,6.4104,-12.0515,3.3333,2.3079,7.9485,17.6921,0.25659,-0.25659,
14.1025,-27.4358,-14.1025,-32.0513,-46.4102,-15.1279,-0.25635,-10.5127,0.76953,2.3076,9.4873,18.7183,0.25635,10.5127,
14.3589,-27.6924,-13.8462,-37.949,-58.4617,-17.436,3.0767,-12.3081,2.564,-2.0513,10.2563,6.1538,4.1025,2.0513,
21.7949,-22.8208,-10,-37.6924,-48.9746,-13.0771,6.4102,-3.8462,4.3589,-5.8975,12.0513,3.8462,5.3843,8.4614,
25.6411,-20,-5.1279,-32.8203,-42.564,-10.2563,10.2563,-4.1025,8.2051,-6.1538,14.8721,4.1025,6.1538,12.8208,
30.5127,-19.7437,-2.3076,-28.4617,-41.7949,-6.4102,15.1279,-5.3848,7.9487,-1.2822,12.564,9.4873,7.436,1.2822,
29.7434,-23.5896,-12.3079,-32.3076,-35.3845,-6.6667,8.718,-3.5896,5.6409,-1.0256,3.0769,12.8206,3.5896,1.0256,
21.0259,-27.6924,-16.4102,-39.4871,-47.6921,-18.4614,5.1284,-13.3335,8.2051,-2.564,2.564,8.2051,4.1025,10.2563,
13.5898,-26.9229,-18.7178,-41.282,-60.769,-21.2817,0.25635,-15.1279,0.76953,3.8462,2.3076,10,-0.25635,13.5898,
24.6155,-22.0515,-12.3079,-37.9487,-45.769,-8.2053,4.1023,-3.0769,1.0256,2.051,3.5896,10.7693,-1.0256,9.7434,
39.6155,-14.3591,-5.1282,-31.7947,-30.769,4.6155,6.1536,-2.0515,1.0256,-7.6921,4.1023,9.7434,-1.0256,8.718,
48.9744,-4.8718,-4.3586,-23.8459,-15.769,16.1541,7.4358,-0.76929,-0.76929,-2.8206,4.3591,13.5896,0.76929,17.1794,
51.5388,-6.4099,-4.8718,-28.4612,-14.1023,17.6926,10.5129,1.282,1.282,-6.4099,-3.3333,7.4358,-1.282,15.6414,
56.4102,-5.1284,-5.6411,-25.6411,0.89771,24.6152,7.6924,5.6411,-2.0513,-10.769,-8.2051,5.1279,-6.1538,11.2822,
60.5127,-4.1025,-3.5898,-17.9487,5.6411,26.6665,5.1279,3.5898,-3.5898,-7.1797,-3.5898,6.6665,-5.1284,6.1538,
59.7437,-6.4102,-5.8975,-19.7437,-8.4614,20.769,4.3589,0.25635,-0.25635,0.25635,-3.3335,15.6411,-6.4102,10.5127,
53.8462,-8.7183,-10.2563,-22.5645,-10.2563,21.0254,4.1025,2.0513,-2.0513,3.5894,-4.1025,25.6411,-9.231,24.1025,
56.4099,-6.6667,-1.0256,-18.9744,-9.7439,22.051,11.282,1.0256,-2.0515,1.5383,-1.5388,21.0256,-4.1028,22.5637,
62.0513,-2.564,0,-15.8975,-13.3335,22.0513,8.7183,0,-3.5898,4.6152,-4.6152,18.9746,-4.1025,15.3848,
57.1794,-4.8718,-4.8718,-15.1282,-21.282,18.718,8.4617,0.76929,-0.76929,7.4358,-1.7947,18.718,-2.3079,13.0769,
50.5127,-9.4873,-5.3848,-17.6924,-23.3335,15.6411,11.5386,0.25635,-0.25635,1.7949,-0.25635,8.9741,-1.7949,8.9741,
56.1541,-3.3333,-1.282,-17.1794,-14.1023,18.2053,8.9744,3.8464,-1.7947,1.282,-4.8718,10.0002,-1.7947,10.5129,
60.5127,-3.5898,4.1025,-18.4614,-19.4873,11.2822,8.2051,0,0,-0.5127,-8.2051,11.7949,-2.564,8.7183,
58.4617,-6.1536,-2.051,-18.4617,-23.5896,13.3333,8.2053,1.0256,-1.0256,4.1028,-7.1794,18.4617,-5.1282,13.3333,
52.564,-6.9229,-9.4873,-24.8716,-26.4102,14.1025,6.4102,0.25635,-0.25635,5.3848,-6.9229,17.1797,-5.3848,12.0513,
56.1541,-6.9231,-0.76929,-25.8972,-26.9231,12.5642,6.9231,-2.8206,2.3079,0.76929,-6.4104,10.5129,-3.8459,1.282,
60.2566,-6.4099,-0.76929,-19.7434,-22.8206,14.1028,5.385,0.76929,-2.3074,4.3591,-6.9231,16.1541,-5.3845,4.8718,
58.718,-11.0256,-3.8459,-18.718,-23.8459,10.5129,9.4871,1.282,-1.282,7.949,-4.8718,17.6921,-4.3591,18.2053,
57.6924,-12.564,-0.76904,-18.7178,-18.7178,12.0513,6.9233,0.76904,-3.8462,5.8975,-3.8462,16.1538,-7.9487,20.2563,
60.2563,-12.564,-0.25635,-19.7437,-11.0254,14.1025,3.3335,2.3076,-5.8975,0.25635,-1.2822,16.1538,-10.5127,5.3848,
63.0771,-9.7437,0,-21.5386,-8.7178,12.8203,9.231,2.0513,-1.5386,-1.0259,5.1284,12.3076,-7.1797,0,
56.4099,-9.2307,-4.6155,-22.0515,-9.7439,11.7947,4.615,1.5383,-3.0769,-1.0256,1.0256,7.6921,-9.2307,13.3333,
56.9233,-10.2563,-1.0254,-22.564,-10.769,11.7949,5.6411,0,1.5386,-4.6152,0,6.1543,-5.6406,23.5898,
58.2051,-8.9741,-0.76904,-23.8462,-10.5127,11.0259,5.8975,0.76904,-0.76904,-3.3335,1.2822,9.4873,-2.3076,18.2051,
57.6924,-7.9487,-4.8716,-21.7949,-10.5127,11.0259,4.3589,6.9233,-4.8716,1.7949,-1.7949,11.5386,-4.8716,6.4102,
62.051,-11.7952,-1.5383,-17.949,-12.8206,7.6921,5.1282,1.5383,-2.5642,3.0769,-7.1794,13.8459,-11.282,3.0769,
65.3848,-7.9487,-1.2822,-12.564,-6.9233,15.1279,3.8462,1.2822,-5.8975,13.0767,-7.9487,26.4102,-13.5898,18.0769,
58.7178,-5.3848,-2.3076,-14.1025,-12.0513,20.2563,3.8462,2.3076,-7.9487,11.0254,-6.9233,26.4102,-10.5127,21.7949,
58.7178,-5.3848,-2.3076,-15.1284,-12.0513,18.7178,3.3335,2.3076,-7.9487,8.9741,-6.4102,24.3589,-10.5127,20.769,
58.2051,-4.8721,-2.3076,-16.1538,-12.0513,17.6924,2.3076,2.3076,-7.9487,7.436,-6.4102,22.3076,-10.5127,19.7437,
58.4614,-4.6157,-2.0513,-16.9233,-11.7949,16.9229,2.0513,2.564,-7.1797,5.6411,-5.6411,20.5127,-10.2563,19.4868,
58.4617,-4.1028,-2.0515,-16.9231,-11.282,16.4104,2.0515,3.0769,-6.6667,4.1028,-5.1282,18.9744,-9.7434,18.9744,
58.7183,-3.8462,-1.7949,-17.6919,-11.0254,15.1284,1.7949,3.3335,-6.4102,2.3081,-4.3589,17.1797,-9.4868,18.2051,
58.7178,-2.8203,-1.2822,-18.2051,-10.5127,14.6152,1.2822,3.8462,-5.8975,1.2822,-3.8462,15.6411,-8.9741,17.6924,
59.7437,-1.2817,-0.25635,-18.2051,-8.9741,14.6157,1.7949,5.8975,-4.3589,0.25635,-1.7949,14.6157,-7.4355,18.2051,
58.4619,-5.6406,0,-18.4614,-12.3076,10.7695,7.1797,3.0771,-2.0513,-4.1025,0,7.6924,-6.1538,20,
62.0515,-1.0256,1.0256,-12.3074,-8.2048,15.8977,10.2566,5.6414,-3.0769,-3.0769,-3.0769,8.718,-5.6409,21.5383,
60.769,1.2822,-1.7949,-15.6411,-10,16.6665,10,7.436,-2.3076,-1.7949,-1.2822,6.9233,-1.7949,17.1797,
61.7949,-2.8203,-1.2822,-16.1538,-10.5127,16.1538,9.4873,5.8975,-1.7949,-1.2822,1.2822,2.8203,-2.3076,14.6152,
65.1279,-1.0259,0,-6.667,0,21.0254,9.2305,8.2051,-2.0513,-0.51318,-2.0513,6.6665,-6.1538,21.0254,
64.3591,-1.282,0.76929,-9.4871,-3.8464,13.0769,12.051,3.3333,-0.76929,-5.3845,-3.8464,2.8206,-4.8718,16.6667,
64.8718,-0.25659,-0.25659,-11.0256,-10.5129,12.5642,10.5129,6.4104,-3.3333,0.25659,-4.8718,4.8718,-5.8972,17.1794,
61.7949,-3.3335,-2.3076,-6.9229,-14.1025,17.6924,5.3848,5.8975,-4.8716,2.3076,-7.436,9.4873,-9.4873,14.6152,
60.2563,-5.8975,-0.25635,-4.3594,-14.1025,16.6665,4.8716,2.8203,-2.8208,0.25635,-5.3848,8.9741,-8.9746,15.1279,
59.2305,-4.8721,-1.7949,-4.8721,-10,16.6665,3.8462,5.8975,-4.3589,1.7949,-2.3076,7.9487,-8.4614,19.2305,
57.1794,-8.9744,0.76929,-6.4104,-10.5129,13.0769,5.8977,4.3591,-0.76929,-2.8206,-2.3079,1.282,-8.9744,14.1028,
57.4358,-8.2053,2.5642,-2.5642,-10.2566,14.3591,4.1028,5.1282,-3.0769,-3.5896,-4.1028,3.5896,-10.2566,18.4617,
56.6667,-3.3333,0.25659,-0.76929,-12.5642,18.718,1.282,6.9231,-5.8972,-0.25659,-4.8718,5.3845,-8.9744,19.2307,
54.1025,-2.8208,4.8716,-5.3848,-14.6152,16.1538,2.3076,3.8462,-1.7949,-2.3076,-3.8462,1.7949,-7.9487,7.436,
53.5898,-4.3589,7.436,-6.4102,-10.5127,17.6924,1.7949,3.8462,-1.7949,-1.7949,-3.3335,9.4873,-7.9487,8.9741,
51.282,-7.1794,5.1282,-5.6414,-19.4871,16.4099,3.5896,2.5642,-4.6155,-2.5642,-5.1282,6.1536,-7.1794,6.6667,
48.4614,-1.7949,5.3848,-3.8462,-20.769,19.231,5.8975,4.8716,-1.7949,0.25635,-1.7949,-0.25635,-3.3335,6.4102,
40.7693,-1.7947,3.8464,-12.051,-21.282,14.1028,5.3845,0.76929,2.8206,-3.8459,-0.76929,-6.4099,-1.7947,10.0002,
41.0259,-4.1025,5.6411,-13.3335,-30.2563,9.7437,8.2051,0.5127,4.6152,-6.6665,-4.1025,-6.1538,-0.5127,11.7949,
45.6409,-1.0256,-0.51294,-3.0769,-28.2053,21.5383,7.1794,7.1794,-2.5642,0.51294,-4.6155,2.5642,-1.5383,14.8718,
43.5898,-1.5386,-1.0254,-2.564,-23.0767,25.6411,10.7695,3.5898,0,-0.5127,1.0259,-0.5127,0,8.7183,
37.9487,-3.5898,0,-10.7695,-20.5132,23.0767,11.7949,2.0513,0.5127,-8.2051,0,-6.667,-2.0513,1.5381,
38.9746,-1.0254,0.5127,-13.3335,-15.8975,23.5898,16.9233,6.6665,-0.5127,-8.7178,0.5127,-6.1538,-1.0254,4.1025,
38.4614,-4.1025,0.5127,-13.3335,-19.4873,20,20.5127,2.564,-0.5127,-8.2051,3.0767,-7.1797,-1.5386,7.6924,
33.0771,-4.8716,-3.8462,-8.4614,-21.2817,18.7183,11.5386,1.7949,-1.7949,-1.7949,1.7949,4.3589,-6.4102,17.1797,
31.7949,-3.0767,-2.564,-8.7178,-24.1025,13.8462,9.7437,0,0,-4.6152,0,3.0771,-3.5894,6.1538,
40,0.5127,5.1279,-6.6665,-19.4873,20,15.3848,4.1025,0,-9.231,-1.5386,-2.564,0,-0.5127,
42.564,-0.5127,7.1792,0,-13.3335,27.1792,14.3589,9.7437,-3.5898,-8.2051,-2.564,-1.0259,0,14.3589,
41.0256,-4.1023,7.6921,-2.5642,-19.4871,20.5129,14.3591,4.1028,-2.5642,-8.718,-2.5642,-4.1023,2.5642,13.3333,
38.9744,-2.0515,3.0769,-8.718,-17.949,19.4871,8.718,4.6155,-3.5896,-4.6155,-5.6409,0.51294,-0.51294,3.5896,
35.6411,-3.8462,2.8208,-8.9741,-20.2563,21.7949,8.9746,6.9233,-1.7949,-4.8716,-5.3843,0.25635,-0.25635,5.3848,
36.4099,-6.1541,5.6409,-3.5901,-35.2563,19.9998,9.2307,4.1023,-3.5901,-8.718,-5.6414,-1.0256,1.0256,17.4358,
33.5896,-6.4104,3.8464,-0.25659,-38.718,17.6921,0.25659,4.3591,-11.5383,-9.9998,-12.5642,4.8718,-8.4617,17.6921,
35.3848,-2.0513,8.2051,-2.0513,-23.718,15.8975,2.0513,3.0771,-10.769,-14.3589,-15.3843,2.5645,-12.8203,6.1538,
36.6667,2.8206,7.949,-3.3333,-8.718,15.1282,7.4363,1.282,-11.0256,-15.6409,-14.1023,-7.9485,-7.4358,-1.282,
37.4358,2.5642,7.6921,-3.0769,6.282,10.7693,16.9231,0.51294,-4.6155,-8.2048,-5.1282,-12.3079,-0.51294,-0.51294,
37.6926,0.76929,8.9744,-4.3586,9.4875,3.3333,16.6667,-0.76929,-2.8206,-2.8206,-4.3586,-2.3074,-6.4099,3.8464,
30.2566,-5.6409,0.51294,-10.2566,15.3845,1.5383,5.1282,-0.51294,-14.3591,-8.718,-15.8972,2.0515,-14.3591,4.1028,
28.9741,-6.4106,3.8462,-11.0259,18.2051,1.7949,8.9741,0.25635,-12.5645,-14.6157,-12.0513,-0.25635,-8.4619,2.3076,
29.2307,-2.051,3.5901,-10.2561,17.949,2.5642,6.6667,-0.51294,-10.2561,-16.4099,-8.718,0.51294,-9.2307,3.0769,
29.2307,-4.1028,-0.51294,-12.3079,14.8718,5.1282,5.6409,0.51294,-6.1541,-10.7693,-10.7693,2.5642,-7.6921,2.5642,
25.8972,-7.949,0.76929,-13.5901,11.5383,2.8206,4.8718,-0.76929,-10.0002,-2.8206,-16.6667,3.3333,-8.4617,1.282,
25.6409,-1.0256,1.0256,-11.282,16.9231,4.6155,2.051,-1.5388,-16.4104,-1.0256,-14.8718,5.1282,-12.3079,6.6667,
31.5388,0.76929,3.8464,-12.5637,16.6667,4.3591,7.949,-2.8206,-7.4358,-5.3845,-6.9231,1.7952,-8.4612,-0.76929,
30.2563,-2.564,3.0771,-11.7949,22.564,8.7183,10.7695,3.0771,-2.0513,-2.564,-5.6411,2.0513,-4.1025,-6.6665,
24.3591,-2.8206,2.8206,-11.5383,25.3845,10.5129,11.0256,1.7952,-0.76929,-3.3333,-1.7947,-2.3074,0.76929,-2.3074,
21.7949,-5.8975,-0.25635,-19.7437,10.5127,3.333,6.9229,-6.4102,0.25635,-10,1.2817,-9.4873,0.76904,-3.8462,
23.0767,-4.6152,-6.6665,-18.4614,13.3335,6.1538,4.1025,-2.0513,-0.5127,-1.5386,2.0513,2.0513,-4.1025,0.5127,
22.8206,-7.4358,-4.8718,-16.1541,19.2307,5.8977,6.4104,-1.282,-3.3333,1.282,-1.7947,6.9231,-5.8972,2.8206,
25.1284,-7.1792,-2.0513,-14.8716,18.4614,7.6924,4.6157,0,-6.1538,0,-6.1538,10.2563,-5.1279,10.2563,
27.4358,-1.7947,-1.7947,-12.5642,18.718,11.0256,6.9231,1.7947,-6.4104,-2.8206,-3.8459,6.9231,-4.3591,10.5129,
30.2563,-1.0259,3.0767,-12.3076,24.1025,14.3589,12.3076,2.564,-2.0513,-11.2822,0,-8.0769,-1.5386,0,
32.3079,-1.5383,1.5383,-14.3591,34.3591,20.5129,9.7439,5.6409,-2.051,-14.3591,0.51294,-15.3845,-0.51294,-4.6155,
29.7437,-1.0259,-0.5127,-18.9746,30.769,13.8462,12.8203,1.5386,-0.5127,-11.2822,2.0513,-10.2563,0.5127,-7.1797,
17.1794,-4.3591,-4.8718,-22.3079,15.769,6.4099,12.5642,-0.76929,-3.3333,-3.8464,1.7947,0.76929,-1.282,2.8206,
6.6667,-12.3074,-11.282,-27.1794,0.76904,3.0769,3.0769,1.5388,-8.7175,1.0256,-1.0256,9.2312,-3.5896,7.6926,
15.1282,-10.5129,-4.3591,-25.8972,12.5642,6.4104,6.9231,-0.76929,-4.3591,-1.282,1.7952,11.0256,-6.4104,0.76929,
23.0769,-5.1282,-1.0256,-23.0769,27.5642,14.3591,11.7947,1.0256,-8.2053,-3.5896,-2.0515,11.282,-13.3333,2.5642,
21.5386,-8.2051,-1.5386,-26.6665,31.2822,13.8462,10.769,1.5386,-9.231,-7.1797,-5.6411,5.1284,-10.769,4.1025,
20.7695,-7.9487,-0.25635,-26.4102,23.3335,13.0771,7.9487,0.25635,-7.9487,-10.5127,-2.3076,3.3335,-7.436,3.3335,
22.5645,-4.1025,-2.0513,-24.6152,28.7183,12.3081,11.2822,5.1284,-6.1538,-9.7432,-2.0513,2.5645,-7.1792,2.0513,
23.5896,-4.6155,1.0256,-25.6414,24.6155,8.2048,15.3845,3.0769,-1.0256,-6.1541,-3.5901,1.0256,-7.1794,-5.6414,
20.5132,-4.6152,0,-20.5127,18.9746,8.7183,6.667,0.51318,-6.1538,0,-4.1025,11.7949,-10.769,-7.1792,
17.9487,-5.6411,-0.5127,-16.9229,16.9229,8.2051,6.1538,0,-6.1538,0,-2.0513,20,-10.2563,4.6152,
20.7693,-5.8977,-1.2825,-15.6414,17.1794,9.9998,7.9485,0.76929,-2.8206,-0.76929,-3.8464,20.2561,-8.9744,17.6921,
15.6409,-8.4617,-8.9744,-16.6667,12.5642,10.5129,2.3079,0.25659,-8.9744,-0.25659,-7.9485,17.6921,-12.051,8.4617,
15.8975,-5.1279,-2.564,-18.4614,14.3589,10.2563,8.7183,0,-6.1538,1.0259,-1.5386,17.436,-6.1538,0,
18.9741,-1.5386,-3.5898,-18.9746,23.0767,12.3076,6.6665,0,-7.1797,0,-1.5386,13.8462,-7.1797,2.0513,
17.4358,-2.051,-5.1282,-18.4617,19.4871,11.7952,8.718,0.51294,-0.51294,-2.051,1.0256,3.5896,-6.6667,-3.5896,
8.7178,-5.6411,-7.1797,-23.5898,9.231,4.1025,11.7949,0.5127,4.1025,-3.5898,0.5127,-0.5127,-5.1284,-11.7949,
3.0771,-8.7178,-14.8716,-26.1538,13.3335,3.0771,4.1025,-0.51269,-3.0767,0.5127,-5.6411,10.7695,-7.6924,1.0259,
5.8977,-9.9998,-11.0256,-23.8459,15.6409,3.8464,4.8718,-3.3333,-3.3333,2.8206,-2.8206,17.1794,-8.4617,13.5896,
5.6411,-6.1538,-8.7178,-23.5898,14.3589,6.1538,7.1797,-2.564,-5.1284,0.5127,-0.5127,16.9229,-11.2822,8.2051,
10.2563,-0.5127,-5.6411,-23.0771,21.0254,9.231,11.7949,0.5127,-2.0513,-3.0771,-1.0259,14.3589,-5.6411,1.5386,
15.1279,-1.7949,-2.3076,-22.3076,23.3335,10.5127,11.0254,1.7949,-1.7949,-3.3335,-4.3589,9.4873,-3.3335,6.9229,
8.718,-5.1282,-10.2566,-27.1794,18.4617,12.8206,3.5896,0.51294,-9.2307,-0.51294,-11.7947,8.718,-12.3079,10.7693,
13.3335,-2.0513,-4.1025,-26.1538,20.5127,12.8203,11.7949,-1.5386,-4.6152,6.1538,-8.2051,13.8462,-7.6924,1.5386,
18.7178,-3.3335,-2.3076,-24.8721,32.0513,10.5127,10.5127,-1.7949,-7.436,8.9741,-7.436,16.6665,-9.4873,1.7949,
14.6152,-8.4614,-5.8975,-27.436,36.1538,10.5127,3.8462,-3.3335,-12.564,3.3335,-8.4614,12.564,-16.6665,13.5898,
15.8975,-3.0767,-0.5127,-24.6152,35.3848,15.8975,7.6924,-2.0513,-8.2051,0.5127,-5.1284,15.8975,-13.3335,15.3848,
12.3079,-0.51294,-7.1794,-26.1541,30.7693,12.8206,6.6667,0.51294,-11.282,-3.0769,-8.718,17.4358,-11.282,4.6155,
17.1792,-0.25635,-3.8462,-25.3848,34.1025,8.9741,14.6152,0.76904,-4.3589,-1.7949,-2.8208,15.1279,-4.3589,0.25635,
22.8206,-1.7947,-2.3079,-24.8718,44.3591,12.0515,13.5896,-0.76929,-4.8718,0.76929,-4.3591,17.6921,-12.051,9.4871,
18.9744,-3.5901,-7.1794,-26.1541,44.1023,12.8206,10.7693,1.5383,-9.7439,-1.5383,-5.6414,15.8972,-17.949,13.3333,
14.8716,-2.0513,-5.6411,-26.667,33.333,6.6665,14.8716,-0.5127,-4.6157,-5.6411,0.5127,3.5898,-10.7695,1.5386,
14.3589,-2.0513,-6.6665,-26.6665,27.6924,9.7437,11.7949,0.5127,-3.5898,2.564,-0.5127,7.1797,-9.231,-2.564,
13.5896,-10.5129,-7.949,-31.5388,20.2561,8.9744,7.9485,-2.8206,-5.8977,6.9231,-7.949,16.6667,-11.0256,2.8206,
12.564,-10.5127,-9.4873,-30.5127,17.1797,8.4614,3.3335,-3.3335,-8.9746,3.8462,-10,17.1797,-14.6152,15.1284,
11.0254,-4.3594,-8.9746,-26.9233,17.6919,13.5894,1.7949,-0.25635,-8.4619,0.25635,-7.436,13.0767,-14.1025,11.5381,
16.4099,-1.0256,-1.0256,-21.0256,21.5383,15.3845,9.7434,-2.5642,-5.1287,2.051,-6.6667,13.8459,-7.6926,1.0256,
16.6667,-2.8206,-6.4104,-18.718,28.9744,10.5125,7.4358,-4.3591,-12.0515,2.8206,-11.0256,17.6921,-14.1028,3.8459,
16.9231,-3.5896,-3.5896,-16.4104,31.7947,12.8206,9.7434,-0.51294,-7.1794,0.51294,-4.1028,18.9744,-12.3079,10.2566,
14.6152,-5.3848,0.76904,-16.6665,30.5127,12.564,7.436,-0.76904,-10,-5.3848,-5.3848,10,-12.564,2.8203,
17.949,-1.0256,2.5642,-14.3586,37.4358,8.2053,9.2307,1.0256,-11.282,-5.1282,-9.7434,1.5388,-11.7947,-7.6921,
21.282,2.8206,3.3333,-13.0769,31.5383,6.9231,16.1541,0.76929,-4.8718,-6.9231,-9.4871,-0.76929,-7.9485,-9.9998,
14.8716,-0.5127,-6.1538,-15.3848,25.1284,9.231,9.231,0.5127,-13.3335,-7.1797,-13.8462,3.0771,-12.3076,1.5386,
13.5896,0.76929,-5.3845,-17.6921,25.3845,5.8972,12.051,1.7947,-11.5383,-4.8718,-12.0515,2.8206,-7.949,-0.76929,
18.7178,4.8721,-0.25635,-16.6665,22.8208,6.9233,14.1025,1.2822,-5.8975,-5.8975,-9.4873,0.25635,-5.8975,-14.1025,
18.9741,4.6152,-2.564,-15.3848,20.5127,14.3589,10.2563,2.564,-9.7437,-5.1284,-9.231,3.5898,-9.231,-9.7437,
20,4.6157,-0.51269,-18.4614,24.6157,13.8462,17.9487,2.5645,-8.2051,-4.6152,-6.1538,0.5127,-5.6411,-5.6411,
20.7693,7.4358,0.76929,-18.718,34.6155,18.2053,20.2566,6.4104,-5.8972,-4.3591,-5.8972,-0.76929,-3.3333,-3.8459,
18.4614,1.0254,0,-16.4102,28.2051,19.4873,13.8462,4.1025,-6.1538,-8.2051,-7.6924,0,-6.6665,0,
16.4102,-5.1284,0,-15.3848,21.5386,12.8203,10.769,0,-7.1797,-8.2051,-8.2051,5.6411,-12.3076,0.5127,
15.3845,-3.0769,-1.0256,-14.8718,30.7693,13.8459,11.282,1.0256,-8.718,-3.5901,-5.6414,14.3586,-12.8206,2.051,
14.8716,-2.564,2.564,-16.4102,33.8462,13.8462,12.3076,-0.5127,-9.7437,-4.1025,-5.6411,14.3589,-10.7695,0.5127,
11.7949,0.5127,-1.5386,-19.4873,25.6411,9.7437,8.7178,-0.5127,-13.3335,-4.6152,-8.2051,15.3848,-11.2822,0.5127,
9.7437,1.5386,-1.5386,-21.5386,14.8721,6.667,9.7437,-5.1279,-7.1792,-4.1025,-3.5898,8.7183,-8.7178,2.0513,
7.6921,-1.5383,1.5383,-24.1028,18.4617,9.2307,6.6667,-5.6409,-3.5896,-6.1541,-4.1028,4.6155,-8.2053,4.6155,
5.8972,0.76929,-1.7952,-23.3333,22.3079,14.1023,4.8718,-0.76929,-10.5129,-6.9231,-9.4871,3.8459,-5.3845,0.76929,
9.4871,7.949,7.4358,-19.7434,11.5383,13.5896,18.718,-3.8459,-3.3333,-5.8972,-2.3079,-5.3845,2.3079,-8.9744,
10.0002,9.4875,11.5388,-17.1794,14.1028,20.2566,16.1541,-4.8718,-1.7947,-1.282,0.76929,-0.76929,-1.7947,-2.8206,
6.667,1.5386,0.5127,-21.5386,24.1025,23.0771,5.6411,-11.7949,-9.7437,-5.1279,-7.1792,4.6157,-6.6665,-0.51269,
9.9998,2.3079,3.8459,-22.8206,29.9998,19.2307,9.9998,-17.1794,-7.4358,-10.0002,-8.4617,3.3333,-6.9231,-2.3079,
0.25635,5.3848,1.7949,-24.3589,27.436,18.7178,10,-18.7178,-11.0259,-11.0259,-11.5386,1.2822,-12.564,-0.25635,
-1.0254,8.2051,4.6152,-22.0513,21.0259,23.5898,20,-13.8462,-3.5898,-8.2051,-2.0513,0.51269,-0.5127,4.1025,
2.3076,9.4873,4.8716,-21.2822,19.2305,23.333,18.2051,-14.6157,-5.8975,-10.5127,-1.2822,0.25635,-0.25635,-6.9233,
4.3591,14.1028,10.0002,-13.5896,23.3333,24.3591,19.2307,-16.1541,-4.8718,-5.3845,-4.8718,5.8972,-4.3591,-6.4104,
-3.3335,11.5386,12.0513,-11.5386,8.3333,12.564,24.8716,-17.1797,0.25635,-7.436,-7.436,0.76904,-0.76953,7.9487,
-7.6921,13.8464,7.1794,-11.282,-6.6667,12.3079,18.9744,-12.8206,-2.051,-6.1536,-1.5383,1.5383,2.0515,10.7693,
-5.8975,15.1284,4.8716,-16.1538,8.3333,27.3079,13.0771,-15.6411,-2.3076,-2.3076,2.3076,6.4102,-2.3076,-2.8203,
-7.9487,7.436,1.2822,-21.2817,23.3333,36.1538,7.9487,-17.6919,-5.3843,0.25635,-5.8975,8.9746,-11.0254,-0.25635,
-16.1541,3.8459,0.76929,-21.7952,8.3333,26.9231,20.7693,-13.5896,-9.4871,1.7947,-7.4358,7.4358,-10.0002,5.8972,
-19.4871,5.6414,8.718,-15.3845,-6.6667,14.8718,28.718,-19.4871,-8.718,0.51294,-0.51294,8.718,-4.6155,2.5642,
-15.8972,5.6409,9.2307,-8.2053,-4.1028,14.8718,13.718,-33.3333,-7.6921,6.1541,-1.0256,22.051,-8.718,12.3079,
-14.3589,4.6157,4.6157,-18.9741,9.7437,15.8975,-1.282,-41.0254,-8.2051,2.0513,-8.2051,14.8721,-15.3843,6.667,
-9.2307,15.3845,6.6667,-19.4871,24.1028,30.8975,13.718,-26.0254,-7.6921,1.0256,-9.2307,5.1282,-11.7947,-1.0256,
-6.6665,17.9487,11.2822,-7.6924,35.8975,36.9229,17.436,-11.0254,-9.231,-2.0513,-11.2822,2.0513,-6.6665,2.564,
8.3335,16.6665,19.7437,-2.8208,50.8975,33.5898,2.8203,-26.0254,-9.4873,-9.4873,-12.0513,-2.3076,-10,2.3076,
23.3335,28.9746,16.1538,-3.3335,65.8975,48.5898,16.6665,-36.6665,-22.8203,-14.6152,-19.7437,-4.3589,-24.3589,3.3335,
37.4358,39.4871,22.051,1.5383,80.8975,63.5898,11.7947,-21.6665,-22.0515,-16.9231,-23.0769,-7.6921,-17.949,-1.5383,
38.4617,47.6921,37.051,13.8459,95.8975,78.5898,-3.2053,-6.6665,-7.6921,-8.2053,-14.8718,-1.0256,-2.949,-0.51294,
44.6155,41.0256,30.7693,10.2566,110.8975,65.1282,-4.6155,-21.6665,-16.9231,-14.3586,-19.4871,-5.1282,-12.3074,4.6155,
42.8206,34.1028,27.4358,8.4617,125.8975,61.282,-4.3591,-36.6665,-18.718,-22.8206,-22.3079,-14.1028,-19.7434,4.3591,
35.1279,43.333,36.1538,15.1279,140.8975,76.282,-19.3591,-21.6665,-6.9233,-12.564,-14.1025,-8.4614,-4.7434,4.3589,
22.564,39.4873,29.231,7.6924,155.8975,77.436,-34.3591,-6.6665,-7.6924,-12.8203,-11.7949,-13.333,-2.564,2.564,
15.8975,32.8203,28.7178,7.6924,170.8975,63.5898,-49.3591,-13.3335,-10.2563,-12.8208,-11.2822,-10.2563,-7.6924,17.564,
0.89746,27.436,30.5127,12.0513,185.8975,71.0254,-64.3591,-28.3335,-9.4873,-8.9746,-13.0771,-0.25635,-5.8975,23.8462,
-14.1025,18.9741,26.6665,3.0771,200.8975,66.6665,-79.3591,-34.3589,-4.6152,-7.1797,-10.769,2.0513,-2.0513,8.8462,
-29.1025,13.8459,22.5642,-1.0256,215.8975,51.6665,-94.3591,-26.1541,-6.1541,1.0256,-4.6155,8.2053,-3.5896,14.8718,
-44.1025,3.3335,27.9487,-0.25635,230.8975,36.6665,-109.3591,-33.5898,-3.8462,0.25635,-1.7949,3.3335,-1.2822,16.6665,
-56.9231,1.0256,28.2053,0.51294,245.8975,25.6409,-124.3591,-46.1538,-0.51294,-8.718,-7.1794,-9.2307,1.5383,10.2566,
-58.9746,8.2051,19.4868,2.0513,260.8975,38.4614,-139.3591,-40.5129,-2.0513,-11.2822,-8.7183,-10.7695,3.5894,20,
-54.1025,4.3586,16.6667,-4.8718,275.8975,46.4104,-150,-38.718,0.76929,-12.5642,-0.76929,-7.949,4.8718,22.3074,
