"AF3","AF4","F3","F4","F7","F8","FC5","FC6","O1","O2","P7","P8","T7","T8",
-68.9744,-33.5896,27.436,44.8721,-102.8206,-74.1025,0.76929,-0.76929,6.9231,2.3079,15.1282,52.564,-28.4614,-27.4358,
-70.2562,-31.7948,29.7438,45.641,-98.4615,-80.5128,2.5641,0.51282,9.2308,-0.51282,18.4615,59.9999,-29.2306,-31.7948,
-64.8717,-28.4615,30.5128,52.5641,-91.0258,-68.4615,4.8717,2.8204,14.1027,-2.8204,21.7948,63.3331,-31.0258,-27.4359,
-68.2053,-34.8718,34.8716,54.3589,-100,-65.1284,8.7178,1.0256,11.7947,-1.0256,23.5896,64.6155,-37.9487,-26.1541,
-66.6666,-26.6666,28.2052,54.8717,-90.7692,-53.8461,6.6666,0.51282,3.5897,-0.51282,16.923,62.0514,-38.4615,-22.5641,
-58.2052,-14.6154,28.9742,52.5641,-75.7692,-40.2565,9.4872,2.3077,4.359,-2.3077,15.641,56.1539,-33.077,-13.077,
-52.3075,-12.3075,32.8207,52.3077,-63.0768,-37.4357,12.8207,0.51282,8.2052,-0.51282,17.4359,58.4615,-23.0768,-7.1793,
-56.6666,-18.2052,27.9486,54.1024,-67.4359,-40.2565,11.0255,-2.3077,6.4103,2.3077,18.205,59.7435,-19.2308,-10.5128,
-57.9486,-18.9745,27.1796,52.3075,-65.641,-39.4872,12.3077,-0.51282,8.7179,0.51282,22.5641,53.8461,-22.5641,-12.3077,
-47.6921,-9.2307,28.2053,49.231,-50.769,-31.282,14.8718,-1.0256,13.8462,1.0256,21.5386,49.231,-17.4358,-6.1538,
-57.4358,-21.0256,36.9231,45.6411,-65.769,-44.6155,18.9744,-3.5898,20,3.5898,24.1025,55.8975,-17.9487,-10.2563,
-72.4358,-36.0256,43.8461,44.8717,-80.769,-59.6155,19.7435,-1.7948,22.3077,1.7948,27.4359,65.8973,-32.5641,-20.7692,
-68.7179,-31.7948,42.5641,48.7181,-69.7435,-54.3588,21.0258,0.51282,18.9745,-0.51282,26.1539,66.6666,-38.9742,-19.4872,
-67.4358,-26.9231,44.8718,50.5129,-62.8206,-45.8975,25.3848,-1.282,15.6411,1.282,24.3591,66.4104,-30.5127,-17.1794,
-73.0768,-33.077,43.3334,50.5128,-76.1539,-56.1539,24.359,-2.3077,15.641,2.3077,21.7948,67.4359,-27.9486,-20.2565,
-88.0768,-44.3591,48.4614,47.4358,-91.1539,-71.1539,27.4358,-1.7949,19.2307,1.7949,28.9744,72.0513,-38.718,-26.4104,
-83.5897,-42.0514,49.7435,49.7435,-90.7694,-64.1027,29.7435,-1.5385,16.923,1.5385,27.6923,74.8719,-38.4615,-25.1283,
-68.5897,-27.0514,36.1539,53.077,-75.7694,-49.1027,24.359,-1.7948,9.4872,1.7948,13.5897,64.3588,-25.8973,-14.1027,
-53.5897,-16.4104,33.3333,47.1794,-60.7694,-41.5386,27.1794,-3.0769,11.7947,3.0769,18.4614,60.5129,-22.5642,-13.3335,
-63.8462,-23.8462,33.5896,43.3333,-57.6924,-50.5129,26.4102,-2.8206,14.1025,2.8206,23.3333,64.3591,-27.436,-19.2307,
-56.6666,-23.8461,31.5385,44.8717,-47.9486,-44.359,23.8461,-2.8204,15.641,2.8204,18.2052,61.2821,-31.0258,-16.6666,
-54.1027,-22.3077,31.0258,46.923,-47.4359,-40.2565,24.359,-3.8461,17.6923,3.8461,17.1796,60.7692,-35.1283,-14.6154,
-61.0256,-21.0256,29.2307,46.1538,-51.282,-39.4871,24.6155,-3.0769,15.8975,3.0769,18.9744,64.1025,-35.8975,-14.3589,
-61.7948,-24.8717,37.1796,45.3846,-49.9999,-43.8461,32.0514,-2.3077,15.641,2.3077,20.7694,66.923,-36.1537,-14.6154,
-61.5385,-27.1796,42.0511,47.1796,-50.2565,-49.7435,33.8461,-2.5641,15.3846,2.5641,18.4615,64.1027,-44.1027,-13.8461,
-75.3846,-32.3077,41.0255,47.6923,-62.0514,-55.3846,31.7948,-1.5385,14.8717,1.5385,23.5897,66.1537,-45.1283,-11.2821,
-77.4359,-31.2821,43.0768,52.3075,-59.4872,-52.3077,35.3846,0.51282,15.8973,-0.51282,26.1537,73.3331,-41.5385,-13.8463,
-62.4359,-22.3076,43.8462,55.6411,-44.4872,-43.8462,39.7437,1.282,16.1538,-1.282,20.2563,68.9744,-50.5129,-19.7437,
-68.7178,-31.282,50.7693,50.2566,-52.3076,-52.8203,45.1282,0,18.9744,0,27.1797,71.2822,-65.5129,-22.0513,
-73.3333,-34.8718,48.2051,47.6924,-58.4617,-55.8975,41.0256,-2.0513,17.4358,2.0513,28.718,78.4614,-76.4102,-17.9487,
-58.9744,-21.5386,41.0256,46.1538,-46.6667,-42.5642,35.8975,-5.1282,15.8975,5.1282,15.8975,73.3333,-71.282,-17.436,
-50.2563,-6.5386,36.4102,44.1025,-31.6667,-28.718,33.3333,-7.6924,12.8206,5.1282,6.1538,65.6409,-63.0769,-22.5642,
-35.2563,8.4614,21.4102,45.8976,-16.6667,-13.718,22.8207,-6.4103,1.7948,-1.7948,1.7948,56.1539,-63.8461,-13.0768,
-20.2563,23.4614,10.5127,37.6921,-1.6667,1.282,14.1025,-10,-3.3335,-13.0769,-2.8206,41.1539,-66.9231,-7.9487,
-5.2563,38.4614,4.6154,26.6664,9.2308,13.8461,9.2308,-19.4872,-6.6666,-22.5641,-17.4359,26.1539,-76.9232,-22.0514,
-2.0513,53.4614,4.1025,25.1279,2.0513,18.4614,7.6921,-22.5642,-15.3848,-23.0769,-23.5898,22.564,-91.9232,-30.7693,
2.5641,68.4614,18.9742,38.9745,-2.5641,19.4872,22.0511,-8.2052,-6.1539,-9.2308,-8.5898,37.564,-103.5897,-16.4103,
3.3334,83.4614,13.5897,37.6923,-3.3334,14.1027,17.6923,-13.077,-6.4103,-19.2308,-10.5128,39.7435,-98.7179,-20.7692,
4.1027,90.2562,23.077,36.923,-9.7435,11.7948,24.1027,-12.3077,-4.1027,-27.6923,-8.2052,36.4103,-89.7435,-32.8204,
-0.25635,90,31.0256,42.8206,-11.5386,11.5386,30.5129,-6.9231,0.25635,-21.282,-1.282,47.4358,-86.9231,-33.5898,
-3.3334,85.3846,24.359,45.3846,-5.3846,13.5897,26.4103,-6.923,2.3077,-15.641,-2.3077,52.0511,-81.2821,-20.7692,
-18.3334,70.3846,23.5898,35.3848,-20.3846,-1.0256,22.5642,-11.282,1.5386,-20.5127,1.0256,45.6411,-74.8718,-22.564,
-28.4617,63.3335,30.5127,39.7434,-26.4104,-5.8975,28.4614,-6.4104,5.8975,-14.1025,11.0256,53.0769,-63.8462,-25.3848,
-39.7435,56.1539,33.077,45.3846,-30.5128,-13.0768,32.5641,-7.4359,7.4359,-8.9742,10.5128,61.2821,-61.2821,-26.923,
-39.4873,46.1538,34.8718,49.2307,-33.3333,-16.4104,30.2563,-6.6667,9.2307,-7.1794,6.6667,60,-55.8975,-20,
-31.7949,46.6667,30.2563,46.6667,-26.6667,-9.7437,25.6411,-5.1282,6.1538,-9.7437,5.1282,51.282,-46.1538,-12.8206,
-31.2821,45.1283,29.2308,42.5641,-25.1281,-13.3334,27.6923,-2.5641,2.5641,-12.8204,9.2308,51.2821,-41.5385,-13.8461,
-25.3848,43.3333,29.4871,44.3589,-21.7949,-16.6667,28.4614,-1.7949,1.7949,-14.1025,5.3845,51.5383,-35.1282,-16.1538,
-23.077,38.9745,32.8204,48.2052,-25.1283,-15.3846,33.8461,-4.6154,6.6666,-13.3334,4.6154,49.7435,-28.2052,-17.4359,
-23.8462,40.7693,32.5642,54.6155,-19.2307,-13.0769,34.1025,-5.8975,5.8975,-13.0769,8.4617,52.0513,-26.9231,-15.1282,
-18.7179,47.9486,25.3846,53.0768,-4.359,-8.4615,28.4615,-5.3846,4.359,-9.4872,8.4615,55.6412,-24.359,-11.0255,
-23.5896,38.4617,26.1538,42.5642,-16.4102,-13.8462,30.2563,-9.2307,7.1794,-7.1794,10.2563,55.8977,-28.2051,-13.3333,
-25.8975,36.1538,25.8975,41.282,-20.2563,-6.9231,31.5386,-6.4102,6.4102,-6.9231,7.4358,53.5898,-31.0256,-8.4614,
-31.282,35.8975,20,36.4104,-16.9229,-1.0256,26.1541,-5.6409,3.5898,-11.282,1.0256,44.1028,-29.7434,-3.0769,
-31.5385,32.0511,14.6154,34.1024,-15.641,-0.25647,19.7435,-8.4615,5.3846,-14.1027,-2.3077,38.7181,-27.4359,0.25647,
-29.2308,30.2562,4.6154,33.3334,-14.8717,3.5897,11.2821,-11.2821,-3.077,-19.4872,-9.7435,31.2821,-28.7179,3.077,
-31.7949,30.769,10.2563,36.4102,-13.3333,3.0769,16.9231,-8.718,-3.0769,-17.436,-6.6667,33.8462,-23.0769,5.6409,
-31.2822,29.7434,2.564,31.7947,-2.0513,4.6152,12.3076,-15.8975,-7.1797,-22.5642,-16.9231,28.2048,-26.6667,2.0513,
-28.2051,31.282,-3.0769,26.1541,3.0769,10.7693,8.718,-18.9744,-12.8206,-27.6921,-21.0256,17.949,-31.282,3.0769,
-30.5129,31.0256,5.8975,26.4104,-2.3076,5.3845,13.0769,-16.1538,-8.9744,-23.3335,-11.5386,22.3079,-27.436,2.3076,
-21.2821,35.1281,-0.25647,25.8976,9.4872,6.923,7.4359,-22.3077,-6.4103,-19.7435,-14.1027,24.359,-24.359,0.25647,
-16.1539,33.59,-4.8717,22.8204,15.6412,13.59,4.8717,-24.359,-6.923,-17.1796,-11.0255,22.8204,-21.2821,4.8717,
-23.5897,28.2052,-3.5897,19.4874,7.1798,10.7692,3.5897,-24.6154,-11.2819,-20.5128,-7.6923,21.0255,-21.5385,6.1539,
-30.5127,26.9233,8.9744,24.8721,-5.8975,-2.8206,10,-22.3076,-3.8462,-18.718,2.8206,26.9233,-18.2051,2.8206,
-38.9745,19.4872,21.5385,32.3077,-17.4359,-17.8206,20.5128,-15.8973,5.1283,-13.8461,14.8717,39.4872,-10.2565,-5.1283,
-36.9231,21.5383,18.4614,36.4102,-16.4102,-16.9231,22.5642,-10.2563,3.0769,-9.2307,12.3076,46.1538,-12.8206,-3.0769,
-44.1025,16.4104,20,32.8206,-28.2051,-20.5127,18.9744,-10.2563,3.0769,-6.6665,8.718,47.6924,-27.8206,-3.0769,
-50.7693,11.282,20.5127,34.3589,-29.7437,-20.5129,14.8718,-8.2051,4.6155,-8.2051,8.2051,49.7434,-42.8206,-4.6155,
-48.7181,13.8461,15.8973,32.8204,-22.5643,-15.3846,16.923,-10.2565,0.51282,-11.2821,7.6923,47.1796,-57.8206,-0.51282,
-49.7435,13.8461,22.0511,30.2565,-27.1796,-24.1027,24.1024,-12.3077,1.5385,-8.2052,10.2565,54.359,-72.8206,-1.5385,
-50.7693,12.8206,21.5383,36.4102,-27.1794,-27.6924,21.5383,-10.7693,6.1538,-6.1538,8.2051,58.4617,-86.1538,-8.2051,
-52.8206,11.7949,15.3845,36.9231,-21.5386,-18.9744,18.4614,-9.7437,6.1538,-8.2051,8.2051,51.7947,-76.4102,-6.1538,
-51.7948,14.8719,8.2052,31.795,-17.4359,-12.3077,11.795,-15.8973,-1.5385,-11.7948,4.1027,42.5641,-71.7948,1.5385,
-55.6411,13.0769,12.0513,32.0513,-28.4617,-20.2563,7.9487,-18.718,-0.25635,-9.4873,6.4102,41.7949,-74.6155,0.25635,
-66.6667,2.0513,23.0769,34.3589,-43.4617,-34.3591,14.8718,-14.3591,7.6921,-2.0513,16.4102,51.282,-71.7949,-6.1538,
-65.3845,-0.25635,15.6411,32.5642,-38.2051,-26.9231,11.5386,-13.0769,2.3076,0.25635,8.9744,53.0769,-60.2563,-3.8462,
-65.641,-6.6666,12.8204,26.1539,-31.7948,-27.6923,10.2565,-16.4103,2.5641,4.1027,6.6666,50.2565,-48.2052,-2.5641,
-73.3333,-16.4102,14.3591,22.5642,-46.7948,-42.6923,12.3079,-21.5383,9.2307,14.8718,12.3079,50.7695,-45.1282,-9.2307,
-73.0769,-10.5129,17.6924,29.4871,-55.6411,-45.8975,14.1025,-20.2563,8.9744,29.4871,10,55.6409,-37.1794,-8.9744,
-63.8461,-6.4103,27.9489,37.6925,-44.3588,-40.2562,18.2052,-15.641,6.4103,35.1283,8.9745,58.2052,-28.4615,-10.5128,
-54.8718,-6.1538,25.1282,35.3845,-33.8462,-44.1025,15.3845,-14.8718,6.1538,28.2051,9.7437,50.2563,-27.1794,-15.8975,
-63.8461,-9.4872,22.3077,27.4359,-48.8462,-53.5897,14.6154,-17.6923,9.4872,25.3846,14.1024,49.9999,-24.359,-20.7692,
-70.0001,-11.5385,31.0255,30.5128,-63.8462,-56.6669,15.1281,-15.641,11.5385,31.5385,15.1281,60.7692,-16.1539,-25.8976,
-63.5897,-7.1796,31.2821,34.8717,-55.3846,-50.2565,14.8717,-12.3077,7.1796,30.2565,11.7948,60.5131,-11.7948,-23.5897,
-66.9232,-8.4615,33.0768,34.1024,-59.7438,-52.0514,21.2819,-11.0258,6.4103,26.923,20.7692,64.3588,-6.4103,-15.1283,
-71.282,-14.3589,35.8975,35.3848,-70.7693,-58.4614,16.4104,-12.3076,7.6924,27.6924,23.0769,70.7693,-7.6924,-15.3845,
-68.718,-16.4102,38.9744,36.9231,-73.3333,-63.0769,13.3335,-10.2563,10.2563,30.2563,22.0513,71.282,-16.9231,-17.4358,
-73.5896,-14.6152,34.1028,37.1797,-75.6409,-62.8203,17.1797,-8.9744,8.9744,26.9231,20.7693,72.5645,-17.1794,-17.1794,
-78.7181,-12.5641,28.4615,37.1793,-78.2052,-60.7694,12.0511,-12.0514,8.4615,23.8461,17.1793,71.5382,-8.4615,-17.6925,
-83.077,-18.9745,35.8973,38.4615,-81.0258,-65.641,9.2308,-12.3077,14.8717,29.2308,19.9999,71.7948,-9.2308,-18.4615,
-77.1796,-11.0258,29.9999,40.2565,-66.0258,-52.0514,10.5128,-10.5128,14.6154,33.5897,18.7179,68.9745,-11.0258,-14.1027,
-71.0256,-7.4358,18.718,32.0513,-51.0258,-41.7949,6.9231,-14.6155,5.8975,26.4104,14.6155,56.1538,-5.8975,-12.564,
-70.7692,-17.4359,22.5641,25.641,-51.7948,-50.7692,5.1283,-16.923,2.5641,20.0001,16.4103,53.3336,-2.5641,-14.8717,
-69.4871,-16.1538,21.7949,27.436,-50.5127,-46.9231,3.8462,-17.1794,4.3589,22.8206,14.1025,53.0769,-3.8462,-13.0769,
-74.8719,-14.8719,20.5128,28.7179,-49.2308,-44.1027,6.6666,-15.3846,9.2306,26.1537,16.923,50.2562,-6.6666,-12.8207,
-75.1283,-14.1027,18.7179,27.9486,-52.0514,-46.4103,4.359,-11.5385,6.923,23.8461,18.2052,52.5641,-4.359,-10.5128,
-78.4614,-18.9744,20.5129,25.1282,-65.6411,-51.7949,2.5642,-13.8462,4.1025,25.6411,19.4873,59.4871,-2.5642,-10.2563,
-89.4873,-28.4617,34.6152,29.4871,-80.2563,-62.8206,12.0513,-14.6155,12.0513,29.4871,27.9487,68.9744,-12.0513,-16.6667,
-104.4873,-38.205,39.7438,32.0514,-95.2563,-77.8206,15.6412,-11.5385,11.5385,26.9232,30.0001,73.59,-20.7692,-29.4872,
-119.4873,-53.205,49.7435,31.7948,-110.2563,-92.8206,16.9232,-12.8204,12.8204,25.1283,38.9745,88.2052,-12.8204,-42.5641,
-134.4873,-67.9486,58.2052,37.6923,-125.2563,-107.8206,15.641,-15.641,17.6923,24.359,42.8204,100.2565,-27.8204,-46.923,
-139.4871,-65.6411,55.3845,37.9487,-140.2563,-122.8206,15.3845,-14.3589,14.3589,25.1282,37.9487,98.9744,-42.8204,-46.6667,
-138.4615,-67.1793,46.6666,32.3077,-144.6154,-124.1024,15.3846,-11.2821,11.2821,25.641,35.3846,96.4103,-57.8204,-49.7435,
-137.4358,-65.6409,42.5642,32.3079,-140.5127,-122.0513,10.7693,-10.7693,12.3079,23.0769,30.7693,96.9231,-72.8204,-47.1794,
-140.7692,-68.4615,51.5385,33.5897,-139.7435,-126.4103,13.5897,-12.5641,12.5641,23.3334,33.5897,101.2821,-79.7435,-45.8973,
-134.8717,-66.1537,47.6923,37.9489,-132.8204,-121.5385,17.9489,-11.2821,11.2821,31.2821,35.3846,100.0001,-82.0511,-45.1281,
-135.6411,-65.8975,40.7693,39.7437,-135.6411,-119.2307,15.6411,-11.0256,11.0256,33.5896,31.0256,94.1025,-83.8462,-42.8206,
-143.8461,-66.4103,51.5385,40.2565,-146.4103,-119.2306,13.5897,-10.5128,10.5128,32.0514,31.0258,97.6923,-88.9742,-40.7692,
-128.8461,-51.4103,46.1539,46.1539,-131.4103,-104.2306,11.2821,-8.7179,8.7179,35.8973,28.7179,96.4103,-80.0001,-32.8204,
-121.7949,-50.5127,41.7949,41.7949,-120.2563,-105.3845,17.1794,-11.5386,11.5386,36.1538,32.0513,92.5642,-77.1794,-36.6667,
-136.7949,-65.5127,55.641,38.2052,-135.2563,-120.3845,20.7694,-12.5641,12.5641,33.5897,38.7181,102.8207,-90.5128,-51.0255,
-151.7949,-80.2562,61.795,43.8463,-150.2563,-135.1281,19.2308,-9.4872,9.4872,33.5897,39.7438,107.4359,-86.4103,-49.9999,
-144.6155,-74.3591,56.9231,46.6665,-142.0513,-127.1794,20.5127,-9.2307,9.2307,29.2307,38.4614,103.5896,-75.3848,-48.2051,
-137.9489,-69.7435,52.3077,44.6154,-137.4359,-124.1027,18.9742,-10.2565,10.2565,26.6666,37.9486,102.0511,-81.5385,-51.7948,
-134.1024,-62.8204,58.2052,43.8461,-133.0768,-119.2308,19.2308,-11.5385,11.5385,31.0258,42.3077,100.7692,-84.359,-50.5128,
-125.641,-53.8461,59.4872,48.2052,-118.0768,-108.2052,18.4615,-9.7435,9.7435,33.8461,36.4103,103.077,-71.2821,-42.5641,
-114.8718,-45.1282,51.7949,49.7437,-105.1282,-94.3589,14.3591,-5.1282,5.1282,31.282,28.718,101.0256,-62.0513,-32.8206,
-119.4872,-45.1281,49.7435,42.0514,-107.6923,-97.9486,15.3846,-7.6923,7.6923,29.2308,34.8719,95.8976,-68.205,-35.8973,
-120.5128,-41.5385,48.2052,39.4872,-103.5897,-95.8973,15.8976,-11.2821,11.2821,34.8719,35.3846,97.4359,-65.1281,-38.9742,
-113.0769,-41.282,46.9231,39.2307,-106.4102,-88.9744,14.1025,-8.4614,8.4614,38.718,33.0769,101.282,-56.6667,-33.5898,
-108.718,-43.5898,47.6924,40.5127,-105.1282,-88.718,13.3333,-7.1794,7.1794,37.4358,35.8975,103.0769,-57.9487,-32.8206,
-103.3334,-36.1537,45.8976,42.8207,-90.1282,-85.3846,10.5128,-7.4359,7.4359,33.077,32.0514,95.1283,-58.7179,-34.1024,
-103.077,-32.3077,46.6666,41.5385,-84.6154,-81.5385,12.8204,-6.6666,6.6666,28.7179,30.2565,91.2821,-50.2565,-32.3077,
-90.7692,-23.0768,39.4872,44.6154,-71.7948,-66.5385,13.8461,-6.1539,6.1539,32.8204,27.6923,92.8204,-41.0255,-22.5641,
-84.8718,-19.2307,37.6924,47.4358,-67.4358,-58.2051,14.6155,-6.4102,6.4102,35.1282,26.4102,88.9744,-46.4102,-16.6667,
-95.1282,-24.8718,43.3335,47.9487,-74.6152,-65.8975,17.6924,-5.8975,5.8975,26.9231,29.4873,87.436,-51.0256,-20.7693,
-84.6152,-12.8206,39.4873,48.718,-59.6152,-50.8975,15.3848,-2.0513,2.0513,24.1025,25.1282,86.1538,-37.9487,-15.8975,
-76.6666,-7.9486,39.7435,43.3334,-63.8461,-44.359,12.5641,-1.2821,1.2821,26.4103,20.2565,82.8204,-33.5897,-11.0258,
-78.9744,-8.2051,43.0769,43.0769,-78.4614,-49.7437,10.7693,-3.0769,3.0769,24.6155,22.0513,84.6155,-36.9231,-11.282,
-72.8204,-4.6154,38.9745,42.0514,-63.4614,-43.5897,10.7694,-6.1537,4.6154,23.077,21.5385,83.5897,-22.5641,-13.3334,
-68.4615,-8.9745,39.7435,39.2306,-55.641,-48.4615,11.0255,-5.3846,5.3846,28.4615,18.205,77.1793,-7.5641,-18.2052,
-70.2565,-13.3334,41.0255,41.0255,-65.641,-55.8976,12.8204,-4.6154,4.6154,29.7435,19.9999,71.7948,-10.7692,-17.4359,
-73.5897,-15.1283,42.8204,39.7435,-66.9232,-54.6154,21.2821,-8.4615,8.4615,28.4615,32.0511,77.1796,-10.0001,-16.1539,
-67.9489,-12.5641,33.0768,31.5385,-53.5897,-49.4872,12.5641,-14.6154,7.4359,22.3077,23.8461,71.5385,-7.4359,-19.2308,
-58.9745,-3.5897,24.1027,30.2565,-38.5897,-40.0001,6.1539,-13.8461,3.5897,19.4872,11.2821,61.5385,-7.1796,-12.8204,
-58.9745,0.51282,24.6154,32.8204,-28.2052,-35.8976,13.3334,-13.8461,-0.51282,21.5385,10.7692,63.0768,-3.5897,-7.6923,
-57.6924,5.8975,16.6665,30.5127,-33.5898,-36.1538,8.4614,-17.6924,-8.9744,18.7178,4.8718,57.6921,-4.8718,-13.5898,
-58.7181,5.3846,21.7948,28.9742,-48.5898,-39.2308,9.9999,-14.6154,-5.3846,15.1281,8.9742,53.0768,-6.9232,-13.077,
-55.3846,3.5897,25.641,33.8461,-47.1796,-40.5128,15.8973,-12.8204,-3.5897,10.7692,9.2308,58.9742,-4.1027,-11.2821,
-53.5898,3.8462,13.0769,30,-35.6411,-44.8718,15.1282,-21.7949,-11.0256,7.9487,1.282,57.1794,-1.282,-20.7693,
-60.7692,-2.3077,16.6666,23.8461,-44.8719,-46.4103,20.7692,-23.3334,-8.4615,12.0511,8.9742,55.641,2.3077,-18.2052,
-57.6923,-5.8973,20.7692,26.9232,-48.9742,-41.2821,21.7948,-22.8204,-8.9742,7.9489,8.4615,55.1283,4.359,-4.359,
-52.5642,0.25635,18.718,27.9487,-41.7949,-41.282,21.7949,-30,-14.1025,0.25635,4.3589,54.6152,-0.25635,-11.5386,
-52.8206,4.1025,13.3333,24.1025,-36.9231,-37.436,22.564,-34.3591,-13.3335,1.0256,6.1538,54.3591,-1.0256,-22.0513,
-55.6411,-1.7949,13.0769,24.8718,-42.3076,-33.5898,23.8462,-32.5642,-10,1.7949,7.9487,52.564,2.8206,-15.6411,
-54.6154,-0.25647,24.359,30.0001,-45.8973,-31.5385,33.5897,-28.9742,-5.3846,3.3334,13.5897,56.1539,0.25647,-15.641,
-50,6.9231,15.6411,24.8718,-41.282,-26.4102,32.0513,-35.6411,-9.4873,2.8206,11.5383,52.0513,-2.8206,-22.3076,
-56.4102,-1.0256,7.1794,18.9744,-49.2307,-35.3845,30.7693,-37.9487,-11.7949,2.0513,10.7693,50.2563,1.0256,-15.3845,
-55.6411,-1.7949,10,22.3076,-45.8975,-37.6924,33.0769,-32.0513,-10.5129,6.4102,12.0513,54.6152,1.7949,-7.9487,
-49.4872,2.8204,3.3334,14.1027,-38.2052,-28.4615,30.0001,-40.7692,-15.1281,5.3846,8.9745,44.3593,-2.8204,-15.1281,
-53.0769,-1.282,6.9231,12.0513,-43.3333,-25.3845,35.1282,-45.3845,-10.5129,5.3845,13.0769,45.8975,1.282,-17.6924,
-46.4102,8.9744,1.7949,25.3845,-33.0769,-17.6924,30.5129,-35.1282,-14.1025,0.76929,7.436,46.9233,-0.76929,-9.4871,
-31.4102,23.9744,0,29.7437,-18.4614,-5.6411,30.2563,-24.6155,-12.8206,4.6155,9.7437,43.0771,0,0,
-44.1028,14.3589,-1.0256,14.7437,-31.2822,-12.3079,28.7178,-39.6155,-11.7949,4.6152,10.769,42.564,1.0256,-4.6155,
-51.0256,8.9744,-2.8206,11.0256,-31.0256,-8.9744,28.4617,-45.3845,-14.1025,2.8206,7.436,47.436,10,-4.3589,
-47.9486,8.4615,-2.3077,15.641,-27.4359,-7.4359,29.4872,-38.205,-14.1024,2.3077,9.4872,45.8976,12.0514,-3.8461,
-47.9487,8.4614,-10,16.1538,-27.9487,-11.5386,23.3333,-38.718,-15.1282,3.3333,5.3845,37.6921,3.3333,-3.3333,
-50.5128,16.6666,-13.5897,17.1796,-29.9999,-3.8461,23.8461,-34.1027,-15.641,4.8717,3.3334,36.6666,-0.25647,0.25647,
-49.7437,20,-15.8975,15.3845,-29.7437,4.6152,24.6152,-29.2307,-16.4104,0,0,34.8716,0,-3.5898,
-44.1025,18.9744,-18.4617,15.8975,-21.0256,5.6411,20.5127,-32.8206,-13.8462,4.6155,-1.5386,31.2822,1.0256,-1.0256,
-51.5385,10.5128,-12.0511,15.1283,-25.8973,-4.359,24.8717,-36.1539,-11.0255,14.1027,8.9745,35.641,-0.76916,0.76917,
-51.7948,11.2821,-22.0511,8.7179,-18.9742,-0.51282,18.9745,-32.8204,-21.5385,9.2308,0.51282,31.7948,2.0514,-1.5385,
-47.4358,14.1025,-33.5896,0.25635,-9.4871,6.9233,7.436,-34.6152,-31.0256,-0.25635,-14.4872,18.7178,5.3848,1.7949,
-46.6669,10.7692,-22.5641,3.0768,-20.5128,-1.5385,12.8204,-37.4359,-23.5897,1.5385,-5.1283,21.5382,2.0511,5.1281,
-38.4615,13.3334,-17.9486,8.7179,-14.8717,0.51282,18.9742,-36.923,-17.9486,4.6154,-0.51282,27.6925,0.51282,-1.5385,
-33.0769,13.5896,-18.718,7.4358,-4.8718,6.4102,19.2307,-35.6411,-19.7437,2.8206,-5.8975,24.8718,4.3589,-2.8206,
-38.2051,13.5896,-22.3076,7.9487,-9.4871,3.8462,12.5642,-37.1794,-24.8718,1.282,-9.4871,21.282,3.8462,-1.282,
-42.5641,18.4613,-27.6923,7.1796,-14.359,4.6154,7.6923,-39.4872,-26.1539,3.5897,-5.641,20.5126,4.1024,-3.5897,
-38.4615,20.5128,-29.2306,3.59,-16.41,9.2311,9.7438,-39.4872,-24.1024,3.0773,-4.6154,19.4874,2.5641,-2.5641,
-32.8206,21.0256,-33.3333,1.5383,-11.282,10.7693,9.2307,-43.5898,-26.1538,0.51294,-9.7437,13.8459,-0.51294,2.0515,
-35.641,18.7179,-24.8717,3.3334,-6.923,-0.76916,14.6154,-42.3077,-22.3077,3.8461,-0.76916,14.6154,6.4103,0.76917,
-35.8975,21.5383,-25.1282,7.1794,1.0256,-2.0513,8.2053,-36.9231,-20.5129,3.5896,-1.0256,15.3845,10.2566,-3.0769,
-31.282,25.1282,-33.3333,7.6926,-6.6665,6.6667,1.0256,-35.8972,-19.4871,3.0769,-7.1794,10.2566,7.1794,-1.0256,
-35.8975,20.0002,-27.1794,5.1282,-21.6665,0,11.7952,-37.4358,-15.3845,3.5898,-0.5127,13.3333,9.7439,0,
-31.2819,24.6156,-27.1793,7.6923,-8.205,-1.5385,15.8973,-35.3844,-19.9999,0.51282,-0.51282,17.9486,12.308,4.6156,
-28.7178,25.6411,-27.6921,7.6924,-9.2307,0,11.7949,-26.1538,-24.6152,0,-2.564,16.9233,6.1538,7.1797,
-37.1794,19.2307,-26.9231,5.8977,-15.1282,-1.282,6.4104,-24.3589,-24.8718,2.3079,-3.3333,14.6155,6.4104,1.282,
-41.7949,18.718,-32.5642,4.3591,-0.12817,4.3591,4.3591,-32.0513,-24.8718,-0.25659,-7.9487,11.0256,8.9744,-0.76929,
-35.8975,22.0515,-29.7437,5.6409,1.0256,5.1282,9.7434,-29.7437,-21.0256,-1.0256,-4.1023,10.2566,2.0515,-3.5896,
-21.7949,31.0259,-29.4871,10,1.7949,8.9741,8.9741,-25.8975,-23.8462,0.25635,-5.8975,6.4102,-0.25635,-2.3076,
-26.4104,27.436,-33.5898,2.8203,5.3848,10.5127,0.25635,-38.718,-30,-2.3076,-15.1284,-0.25635,1.2817,1.2817,
-31.282,28.2053,-33.8462,2.0515,13.3333,11.7947,-0.51294,-36.4102,-25.6411,-1.5383,-14.8718,0.51294,3.0769,3.5896,
-21.7949,39.2307,-36.1538,4.3591,19.7439,16.6667,4.3591,-25.3845,-25.8975,-2.8206,-14.6155,-5.3845,2.8206,6.9231,
-16.6667,36.1538,-31.0256,3.3335,12.0513,14.1025,8.9746,-29.4871,-26.4102,-3.3335,-10.5127,-7.9487,4.3589,6.4102,
-11.7949,37.436,-32.8203,4.6157,11.7949,9.231,3.5898,-32.3076,-25.6409,0.5127,-11.2817,-6.1538,7.6924,-0.51269,
-18.2048,46.4104,-33.5896,4.8718,15.1282,12.5642,1.282,-28.4614,-23.3333,4.3591,-12.5642,-7.4358,5.3845,-1.282,
-21.5383,44.1028,-34.8718,1.5383,21.5383,21.0256,6.6667,-31.282,-23.5898,2.5642,-15.3845,-10.2566,-1.5383,7.6921,
-6.5383,44.6152,-39.4873,5.1279,26.1538,20.5127,5.1279,-32.3079,-25.6411,0,-17.9487,-12.8208,0,12.8203,
-3.5898,50.2563,-35.8975,12.8203,15.8975,10.769,-0.51269,-28.2051,-21.5386,0.5127,-12.3076,-8.7178,5.6411,9.7437,
-2.3076,60.2563,-37.1794,14.6152,29.4873,23.3335,-1.2822,-22.8203,-20.769,1.2822,-16.1538,-8.4614,7.9487,14.6152,
4.6152,54.8716,-42.0513,4.1025,37.9487,26.1538,-3.0771,-23.5898,-28.7178,-5.6411,-24.1025,-20.5127,3.0771,13.8462,
-1.0256,52.3079,-34.3589,7.1794,29.2307,21.0256,1.0256,-24.1023,-25.6409,-2.5637,-15.3845,-13.3333,4.1028,12.8206,
11.7949,53.8462,-34.8716,11.2822,23.5898,23.0767,-4.1025,-30.2563,-26.6665,-0.5127,-19.4873,-13.3335,0.5127,11.2822,
25.3845,47.949,-32.5642,8.9744,26.4104,8.0767,-9.4871,-24.3591,-24.8718,-0.25659,-21.7947,-18.718,0.25659,10.5129,
10.3845,52.3081,-37.4358,8.7183,41.4104,2.0513,-10.2563,-17.9487,-18.4614,3.0771,-19.4868,-15.8975,10.2568,15.3848,
-4.6155,63.3333,-42.8206,9.4871,56.4104,17.0513,-2.3079,-19.7434,-18.2048,2.3079,-16.1536,-19.7434,13.0769,21.7952,
10.3845,61.282,-43.3333,6.9231,71.4104,24.8718,-9.4871,-23.3333,-27.4358,-2.8206,-21.282,-28.4617,2.8206,16.1541,
25.3845,58.2053,-51.5383,2.8206,80.7693,14.6155,-24.4871,-30.5129,-34.6155,-2.3079,-31.0256,-34.6155,2.3079,11.5383,
10.3845,63.8459,-45.8975,5.3845,95.7693,29.6155,-9.4871,-21.282,-22.3079,8.4617,-16.1541,-22.8206,17.3079,26.5383,
12.8203,63.0767,-50.2566,-0.5127,110.7693,37.9487,-1.5386,-16.9233,-25.1284,0.5127,-18.4614,-25.6411,13.3335,28.7178,
27.8203,66.9231,-49.9998,1.282,125.7693,32.5642,-9.9998,-12.5637,-26.9231,-1.282,-22.3074,-34.615,11.5388,18.2053,
41.5383,58.4617,-47.6921,-1.0256,140.5129,17.5642,1.5383,-24.1023,-30.2561,-2.5642,-21.5383,-39.4871,9.2307,3.2053,
56.4102,57.9487,-46.1538,-7.1797,135.8975,11.2817,1.5386,-31.7949,-29.7437,-1.5386,-23.5898,-33.8462,3.5898,4.1025,
57.4358,62.5642,-36.9231,-3.5896,135.8972,19.9998,-9.2307,-16.7949,-20.5129,3.5896,-18.4617,-26.1541,4.6155,14.8718,
42.4358,60.7693,-46.9231,0.76929,150.8972,22.8206,-0.76929,-7.9485,-25.3845,-1.282,-16.1536,-34.1023,11.5383,10.0002,
27.4358,66.6667,-53.3333,-1.0256,165.8972,37.8206,14.2307,-14.3591,-25.6409,1.0256,-11.282,-32.8206,17.9485,18.4617,
12.564,54.1025,-50,-12.0513,180.8972,22.8206,29.2307,-27.436,-26.4102,-3.3335,-20.2563,-32.0513,3.3335,18.2051,
3.5898,53.8462,-49.7437,-4.1025,195.8972,7.8206,43.0767,-15.8975,-24.6157,-3.5898,-25.1284,-31.2822,5.1279,16.9229,
-8.718,55.8972,-46.6667,-2.5642,210.8972,18.4617,58.0767,-6.1541,-18.9744,2.5642,-13.8464,-28.2053,13.3333,19.4871,
-0.51294,47.6921,-47.1794,-8.718,221.0256,17.9485,73.0767,-9.7434,-21.0256,0.51294,-14.3591,-33.8459,7.1794,14.8718,
1.7949,48.9741,-50,-2.8208,231.0254,6.9229,83.8462,-6.9233,-21.2822,-1.7949,-17.6924,-40.2568,7.4355,10,
-13.2051,49.7434,-43.0769,-1.0256,244.1023,11.7947,98.8462,-5.6414,-17.4363,1.0256,-10.2566,-31.7952,12.8206,7.1794,
-3.0769,61.0256,-42.5642,0.51294,257.4358,26.7947,113.8462,-10.2566,-22.0515,-0.51294,-14.3591,-28.718,15.3845,14.8718,
11.0259,58.2051,-52.0513,-5.8975,242.4358,11.7947,114.1025,-15.1284,-33.5898,-15.5129,-26.4102,-43.718,5.8975,8.9746,
-3.9741,56.6667,-39.7434,-7.4358,236.1541,7.4358,129.1025,-0.12842,-24.3591,-11.5383,-17.6921,-41.282,8.9744,10.5129,
-10.5127,71.6667,-38.2051,-10,251.1541,22.4358,144.1025,14.8716,-27.436,-11.5386,-18.2051,-38.7178,10,17.6924,
1.5383,86.6667,-47.6921,-16.9231,253.8459,26.6667,138.9744,0.51294,-38.9744,-24.1028,-29.7434,-51.7952,-0.51294,10.2566,
8.718,97.949,-42.051,-17.4358,247.6921,21.0256,132.8206,2.5642,-35.8972,-23.0769,-31.7947,-51.7947,-2.5642,7.6921,
1.7949,98.2051,-33.0771,-22.3076,241.2822,21.2822,142.3076,10,-36.1538,-19.231,-30.5127,-47.436,-1.7949,4.3589,
6.9231,111.0256,-31.0256,-22.3079,241.7947,12.0515,141.282,6.4104,-40.7693,-18.718,-31.5383,-46.4104,-3.8459,3.8459,
5.8975,126.0256,-36.6665,-26.9229,246.9233,19.231,136.1538,9.4873,-39.7437,-18.2051,-31.5381,-52.0513,-5.8975,14.6157,
-0.25635,130.5127,-30,-24.8716,245.8975,28.9746,151.1538,22.3076,-33.0767,-14.6152,-24.8716,-51.5386,0.25635,17.1797,
14.7437,136.6667,-32.5642,-17.6921,240.2566,15.1282,154.6155,8.9744,-40.2566,-22.8206,-35.1282,-54.1028,-4.3591,4.3591,
29.7437,149.4875,-32.051,-18.2048,231.5388,8.9744,152.5642,9.4875,-39.2307,-19.7434,-36.6667,-46.4099,-5.3845,5.3845,
14.7437,146.6667,-31.7947,-26.1536,224.1028,17.4363,157.4363,24.4875,-35.8972,-15.8972,-33.8459,-42.5637,-5.1282,5.1282,
19.2307,153.0769,-38.2053,-21.282,239.1028,29.9998,157.1794,24.3591,-39.7434,-20.2566,-39.7434,-48.9744,-4.8718,4.8718,
25.6411,158.4614,-32.8203,-22.0513,252.8203,28.2051,162.0513,9.3591,-42.0513,-23.0767,-40,-50.769,-7.1797,7.6924,
28.718,161.0256,-33.3333,-28.2053,237.8203,33.3333,161.5383,14.8718,-47.6921,-25.1282,-43.5896,-56.4104,-7.1794,7.1794,
32.3079,165.1282,-41.5383,-31.282,225.6409,35.3845,153.8459,21.0256,-54.8718,-31.282,-54.3591,-70.2566,-4.1028,4.1028,
37.4355,180.1282,-48.2056,-27.1797,240.6409,36.9229,153.333,6.0256,-50.2568,-31.7949,-55.3848,-73.8462,-2.0513,4.6152,
52.4355,195.1282,-63.2056,-26.1536,255.6409,51.9229,149.7434,-1.0256,-49.2307,-28.718,-64.1023,-81.5383,1.0256,12.3079,
66.1541,200.5129,-78.2056,-41.1536,252.3079,66.9229,136.4104,7.1794,-64.2307,-41.5383,-79.1023,-96.5383,-6.6667,6.6667,
58.4614,186.6665,-89.7437,-51.7949,240.5127,57.9487,138.9746,5.1284,-64.6152,-39.4873,-81.5386,-98.9741,-5.1284,9.231,
60,194.3589,-78.9741,-39.4873,245.6411,56.4102,152.8203,-2.564,-49.6152,-24.4873,-66.5386,-83.9741,2.564,15.3848,
54.8716,195.8975,-80.5127,-39.4873,233.8462,48.7178,153.333,2.564,-46.6665,-20.5127,-58.4614,-83.0771,-2.564,11.2817,
55.8975,197.9487,-90.2563,-41.0254,221.5386,48.7183,144.1025,6.1538,-52.8203,-29.7437,-64.1025,-87.6924,-6.1538,10.2563,
57.9487,192.8208,-92.3076,-42.0513,225.1284,50.7695,142.564,-0.5127,-49.2305,-29.7437,-57.436,-85.6411,0.51269,7.1797,
62.564,184.1025,-106.1538,-50.2563,240.1284,51.7949,135.8975,0.5127,-57.436,-30.769,-64.6152,-90.769,0,0,
75.1284,187.436,-114.1025,-50,244.3589,55.6411,133.0771,3.8462,-66.4102,-34.6152,-73.0767,-99.7437,-3.8462,4.8721,
74.6152,189.4868,-103.8462,-40.7695,229.3589,54.6152,141.2817,-0.25635,-59.231,-35.1284,-62.8208,-94.1025,0.25635,13.0767,
62.8208,181.7949,-110,-42.8203,214.3589,54.6157,136.1538,-0.25635,-58.2051,-37.1792,-64.8716,-87.4355,0.25635,8.9746,
57.1794,167.949,-107.4358,-48.4612,199.3589,47.949,134.6155,2.8206,-59.7434,-35.6409,-66.9231,-87.9485,-2.8206,3.8464,
67.949,168.4617,-95.6409,-40.7693,197.1794,42.3079,140.2566,-1.7947,-61.282,-36.6667,-66.9231,-92.051,1.7947,2.8206,
82.949,179.4871,-101.0256,-33.8464,207.1794,49.7434,141.0256,-3.0769,-61.5388,-37.949,-72.3079,-97.4363,7.6921,3.0769,
76.9233,170.769,-106.6665,-42.564,200.5127,52.3076,135.8975,-5.6411,-58.4614,-33.3335,-69.231,-97.9487,5.6411,6.1538,
74.3591,167.1794,-107.1794,-45.1282,208.718,60.5129,130.7693,-8.718,-58.9744,-27.6921,-67.1794,-98.9744,8.718,15.8977,
75.3848,162.564,-113.3335,-47.1797,199.4873,60.5127,133.3335,-10.769,-63.5898,-34.3589,-73.8462,-105.6411,10.769,13.8462,
70.2566,157.949,-115.8972,-47.6921,187.1794,57.4358,133.3333,-8.718,-61.0256,-36.4104,-73.3333,-104.1023,9.7439,8.718,
63.8462,157.6924,-107.436,-44.8716,187.436,57.6924,129.4873,-7.436,-58.2051,-31.0259,-65.8975,-106.4102,7.436,11.0254,
53.8462,151.7949,-93.8462,-40.5127,172.436,43.5898,140,-6.1538,-54.3589,-27.1792,-58.4614,-103.5898,6.1538,6.6665,
46.1538,150.2563,-95.8975,-33.333,157.436,35.8975,143.5898,-3.5898,-51.2817,-25.6411,-56.9229,-88.7178,8.2051,3.5898,
42.5642,142.0515,-97.4358,-35.8972,152.8206,30.2566,138.4617,-4.6155,-51.7947,-28.2048,-54.8718,-85.1282,5.1282,4.6155,
51.7952,138.9744,-82.5637,-32.8206,137.8206,24.6155,145.6414,-1.0256,-47.1794,-24.615,-49.2307,-81.5383,1.0256,2.5642,
50.2563,149.7432,-81.5386,-29.231,122.8206,28.2051,147.6919,0,-46.667,-20,-49.231,-77.9487,2.0513,0,
35.2563,143.3333,-86.4104,-37.1794,122.8206,25.3845,139.7434,-0.25659,-46.9231,-20.7693,-43.8459,-76.6667,2.3079,0.25659,
32.8208,134.8721,-87.1792,-36.9229,131.2822,19.4873,135.8975,0,-45.6406,-21.5381,-45.1279,-72.8203,0,3.5898,
47.8208,138.9746,-78.9741,-28.2051,116.9233,15.3848,145.6411,2.564,-41.0254,-16.9229,-47.1797,-64.6152,-2.564,5.1284,
43.8462,140.2563,-77.1792,-24.8716,105.3848,21.7949,142.8208,4.3589,-40.769,-16.1538,-43.8462,-65.8975,-2.3076,2.3076,
37.9487,136.9233,-88.2051,-30.769,118.9746,32.3076,127.8208,0,-48.2051,-23.0767,-48.2051,-78.4614,0,1.0259,
37.436,130.7695,-85.1279,-35.3843,123.5898,27.1797,132.8208,0,-49.2305,-22.0513,-47.1792,-73.8457,0,3.5898,
43.5898,133.8462,-82.0513,-28.7178,118.4614,30.2563,140,2.564,-46.6665,-11.7949,-46.1538,-66.6665,-2.564,12.8203,
37.6924,130,-80.769,-24.3589,104.8716,35.1284,137.1797,1.7949,-45.3848,-6.4102,-44.3589,-70.5127,-1.7949,18.7178,
26.1541,115.3845,-76.4104,-26.6667,97.4358,25.1282,137.4358,3.5896,-44.6155,-9.2307,-39.9998,-67.6921,-3.5896,10.7693,
39.4871,117.4358,-80.0002,-27.1794,111.282,27.1794,133.8459,5.1282,-45.6414,-8.718,-44.1028,-69.7439,-5.1282,8.2048,
41.282,117.1794,-75.1282,-27.9485,112.0515,28.9744,131.5383,-0.76929,-42.8206,-5.8972,-42.3079,-68.4617,0.76929,13.0769,
37.6924,114.1025,-77.6924,-26.4102,114.1025,27.9487,134.6152,-5.3848,-40.2563,-8.4614,-42.3076,-63.3335,5.3848,12.0513,
49.2307,117.4358,-89.2307,-28.718,124.1028,31.7947,133.8459,-7.1794,-43.5896,-11.282,-45.1282,-70.2566,7.1794,11.7947,
51.5383,115.1282,-85.3845,-32.5642,118.2053,34.1028,129.9998,-7.4358,-46.4104,-6.9231,-43.3333,-72.5642,6.9231,14.6155,
52.3076,118.9746,-97.436,-30.2563,123.0771,42.0513,125.1284,-7.6924,-43.5898,-5.6411,-49.7437,-73.333,5.6411,16.4102,
54.1028,121.7947,-112.436,-33.0769,132.0515,41.7947,123.8459,-12.051,-39.2307,-8.4617,-53.5896,-80.2566,8.4617,16.6667,
45.3845,115.1282,-127.436,-39.7434,118.718,31.5383,117.6921,-19.7434,-47.4358,-9.4871,-54.6155,-87.4358,9.4871,14.6155,
41.2817,109.4873,-142.436,-38.2051,103.718,27.9487,117.6924,-19.231,-52.564,-7.9487,-52.0513,-87.9487,7.9487,13.5898,
42.5645,109.231,-128.2051,-32.8203,97.9487,26.1538,126.1538,-10.2563,-45.6411,-7.6924,-46.6665,-79.4868,7.6924,12.8208,
41.7949,110.5127,-132.0513,-30,98.7183,26.9233,124.3589,-8.9741,-44.8716,-6.4102,-51.5386,-74.6152,6.4102,12.564,
32.0513,100.769,-129.4873,-27.436,83.7183,19.7437,126.4102,-14.6152,-46.9233,-0.25635,-52.0513,-73.0771,0.25635,12.564,
28.9746,94.1025,-121.282,-24.3589,69.4873,12.0513,126.4102,-16.1538,-46.4102,6.4102,-51.0254,-66.4102,-6.4102,13.5898,
28.4617,89.4871,-120.2563,-29.9998,67.949,8.4617,118.718,-15.1282,-46.4104,10.0002,-49.9998,-65.8972,-8.4617,8.9744,
23.8459,82.3074,-108.9746,-26.4104,56.6663,4.8718,126.9231,-10.5129,-36.1541,17.1794,-37.6926,-62.3079,-4.8718,4.8718,
22.8206,80.7693,-113.5896,-17.1794,55.6414,7.949,124.8718,-14.1023,-37.1794,13.0769,-42.8206,-61.282,-6.9231,6.9231,
18.4617,80.0002,-112.3076,-17.4358,52.8206,10.2566,116.9231,-16.9231,-38.4617,11.7947,-44.1028,-57.9485,-9.2307,9.2307,
15.1279,80.769,-104.3591,-18.2051,43.8462,8.4614,119.2305,-12.0513,-35.1284,16.1538,-39.7437,-52.564,-8.4614,10,
17.9487,83.5898,-112.3076,-20,48.2051,9.7437,121.0259,-13.3335,-38.9741,13.3335,-46.1538,-55.8975,-9.7437,12.8203,
19.231,79.7437,-110,-19.231,52.564,10,123.8462,-15.1279,-34.1025,12.564,-40.769,-55.1279,-10,16.6665,
23.0769,77.9485,-108.2051,-18.4617,52.3079,10.7693,117.4358,-14.8718,-36.9231,12.3079,-41.0256,-57.4358,-10.7693,14.3591,
22.0513,77.436,-108.7178,-21.0254,45.6411,9.7437,115.8975,-14.8716,-41.5386,12.8208,-44.6152,-57.4355,-9.7437,15.3848,
17.6921,75.1282,-108.9744,-21.282,45.3845,10.5129,112.5642,-18.718,-38.718,14.1023,-43.8464,-55.6409,-10.5129,15.6409,
29.4871,81.282,-110.5129,-20.2566,56.6667,20.7693,102.8206,-23.3333,-44.3591,11.5383,-49.4871,-63.8464,-11.5383,14.6155,
35.1282,83.3333,-104.8718,-20.7693,47.9485,17.6921,107.4358,-25.8977,-45.8977,8.9744,-49.4875,-66.4104,-8.9744,15.1282,
27.6921,82.051,-110.7693,-23.5896,47.1794,13.3333,104.6155,-27.6921,-41.5383,7.6921,-50.2566,-66.1541,-7.6921,14.3591,
24.1025,84.1025,-108.7183,-24.6157,58.4614,21.0254,102.564,-19.4873,-37.436,11.7949,-48.2051,-64.1025,-11.7949,18.9741,
21.282,76.6667,-97.6921,-21.282,46.9231,16.6667,107.4358,-12.5642,-40.2566,12.5642,-45.8977,-57.6921,-17.1794,19.7434,
26.4102,74.6152,-98.7178,-14.6152,31.9231,13.5898,107.436,-14.6152,-39.7437,11.5386,-46.4102,-56.1538,-11.5386,18.7178,
23.5896,70.2566,-92.3079,-10.2566,18.4617,7.6921,113.3333,-15.8977,-32.8206,14.3591,-39.4871,-50.2566,-7.6921,15.8972,
10.2563,63.5898,-77.3079,-0.5127,15.3848,0.5127,123.0767,-8.2051,-24.6152,21.5386,-30.2563,-35.2566,-9.7437,18.9741,
-2.8206,58.718,-62.3079,11.5383,2.8206,-6.4104,128.9744,3.3333,-14.6155,28.4617,-17.6921,-20.2566,-7.9485,26.4104,
-1.0256,61.0256,-47.3079,24.1028,-12.1794,-12.3079,141.0256,14.8718,-5.1282,34.3591,-2.6921,-5.2566,-4.1023,30.2566,
-2.0513,53.333,-41.5386,23.0767,-20,-18.4614,142.0513,9.2305,-10.7695,28.7178,-5.1284,2.0513,-10.2563,21.0254,
-17.0513,38.333,-41.0256,18.4614,-34.3589,-33.4614,139.4873,5.6411,-8.7178,27.6924,-5.6411,6.6665,-13.8462,9.231,
-31.7949,26.6667,-38.4617,21.0256,-42.0513,-42.5642,134.3591,5.1282,-5.6409,27.6921,-3.0769,14.8718,-15.3848,3.0769,
-21.282,35.1282,-40.2563,26.9231,-30,-32.564,135.6409,3.3333,-5.3845,26.9231,-3.3333,13.5896,-15.1282,8.4617,
-16.4104,33.8459,-37.9487,27.1794,-21.0259,-28.2053,137.9485,4.6155,-4.6155,27.6921,-5.1282,9.7434,-14.3591,12.3074,
-10,35.6411,-42.3076,21.2822,-6.0259,-27.436,134.6152,5.8975,-8.9746,27.9487,-15.6411,5.3848,-14.1025,12.0513,
-3.0769,36.4104,-42.5642,16.4104,-0.51294,-23.5896,141.0256,0.51294,-7.1794,31.282,-11.7952,3.0769,-6.1541,14.3591,
-0.5127,38.4614,-43.5896,18.9746,-10.2563,-16.9229,140,0.5127,-3.0767,30.769,-5.1279,0.5127,-0.5127,15.3848,
-14.8718,33.3333,-41.0259,20.5125,-25.2563,-27.1797,135.8972,7.1794,-5.1282,27.6921,-5.1282,5.1282,-12.8206,6.1536,
-29.8718,18.3333,-29.4872,22.8204,-40.2563,-42.1797,145.3849,8.4615,-2.8204,28.9742,2.3077,18.7179,-23.8461,-2.3077,
-33.8464,12.3074,-33.8464,23.0769,-35.8977,-51.2822,143.5896,1.5383,-5.6414,23.5896,-1.0256,16.9231,-23.5898,1.0256,
-26.1537,8.7179,-30.7692,23.0773,-44.1024,-52.3075,143.0773,3.59,-4.6154,21.5387,-2.5641,17.9489,-19.9999,2.5641,
-24.8718,12.0515,-25.3845,30.5129,-37.6924,-50,147.4358,12.5642,-1.282,28.4617,0.76929,27.949,-16.6665,-0.76929,
-24.8718,21.7947,-35.6411,29.9998,-22.8206,-39.7437,140.7693,7.9485,-3.3333,31.0256,-2.8206,20.7693,-16.6667,2.8206,
-21.0256,20.0002,-35.8972,25.1282,-27.6921,-32.3076,137.4358,1.0256,-1.0256,31.282,-3.5896,11.7952,-16.4099,8.2053,
-6.0256,23.5898,-46.6665,25.6411,-12.6921,-17.3076,128.7183,2.0513,-10.2563,25.6411,-14.8716,2.0513,-15.8975,8.7183,
8.2048,36.9231,-61.6665,22.051,2.3079,-3.0769,115.8972,-4.1028,-22.0515,17.9485,-26.1541,-11.7952,-20.5129,9.7434,
3.5896,44.1023,-72.8206,15.3845,2.5642,-2.5642,108.718,-14.3591,-23.5896,15.3845,-31.7952,-16.9231,-25.1282,11.282,
1.5386,38.4614,-81.5386,3.0771,8.7178,-1.5386,100.5127,-16.4102,-31.7949,7.6924,-41.5386,-31.9231,-24.1025,8.2051,
7.4358,34.1023,-80.7693,-2.8206,15.6409,2.8206,104.8718,-13.0769,-32.5642,4.3591,-38.718,-41.282,-18.718,7.9485,
10.2561,38.9744,-82.0515,-3.0769,12.8201,3.0769,104.615,-23.0769,-27.1799,8.7175,-37.4363,-38.4617,-17.4363,8.7175,
11.2822,42.564,-75.8975,-2.0513,12.3076,2.0513,109.231,-21.0259,-16.9229,16.9229,-29.231,-32.3076,-10.769,17.9487,
10.2561,37.9485,-76.9231,-5.1282,10.2561,5.1282,106.6667,-15.3845,-21.5388,11.282,-28.2053,-35.8977,-10.7693,20.5125,
8.9744,41.282,-85.3845,-2.8206,6.4104,14.6155,99.7439,-22.8206,-33.0769,2.8206,-39.2307,-41.282,-15.6409,19.2307,
5.3843,39.2305,-77.6924,-0.25635,0.25635,4.8716,104.8716,-24.3594,-33.0771,1.7949,-38.2051,-37.6924,-12.5645,15.1279,
15.6411,41.2822,-73.5898,-3.8462,11.0254,6.4102,102.3076,-15.1284,-30.5127,3.8462,-36.6665,-36.1538,-6.4102,12.564,
17.9485,42.5642,-71.7952,-7.1794,8.2048,12.3074,103.0769,-13.8464,-27.6926,6.6667,-34.3591,-37.949,-6.6667,11.282,
16.4104,39.4871,-56.7952,6.1541,-5.1282,5.1282,118.0769,-8.2048,-15.3845,17.4358,-19.3591,-24.6155,-5.6409,18.4617,
16.4102,41.0254,-50.7693,18.4614,-6.1538,1.5386,122.0513,-1.5386,-9.7437,24.1025,-11.2822,-12.8208,-4.1025,28.7178,
3.8459,29.9998,-42.8206,17.1794,-21.1538,-6.9231,120.2561,0.76929,-4.3591,27.4358,-5.8977,-4.8718,-0.76929,23.3333,
0.25635,18.7183,-39.7434,16.1538,-35.1282,-15.6411,125.8975,1.2822,-2.3076,27.9487,-5.3843,-4.3589,-0.25635,15.1284,
8.9746,27.9487,-43.8462,17.1797,-20.1282,-6.4102,125.8975,1.7949,-4.3589,25.8975,-10,-7.9487,-1.7949,21.2822,
7.6924,36.4102,-49.231,13.3335,-5.1282,0,113.8462,0,-8.2051,17.436,-17.436,-13.8462,-3.5898,21.0254,
9.4871,36.1536,-64.231,8.4612,1.282,-1.282,102.3074,-5.3845,-15.1282,8.4612,-28.4617,-28.8462,-5.8977,15.1282,
16.1541,27.949,-67.4358,6.4104,1.282,-1.282,110.0002,-8.4617,-17.1794,11.0256,-25.3845,-37.6921,-2.3079,16.6667,
13.8464,23.0769,-63.5896,1.5383,-5.1282,4.1028,110.7693,-11.282,-23.5896,7.1794,-30.2561,-36.4104,-1.5383,16.4104,
6.9233,30,-59.2305,1.7949,-3.8462,4.3589,108.9746,-10.5127,-22.8203,7.436,-30,-35.1279,-1.7949,16.667,
4.3589,30.5127,-58.2051,4.8716,1.7949,-1.7949,113.0767,-12.0513,-19.231,12.0513,-24.8721,-33.0771,-4.3589,16.6665,
15.8975,27.1792,-71.7949,-2.0513,8.7178,4.6152,108.2051,-17.436,-27.6924,2.0513,-39.8721,-42.0513,-10.2563,15.8975,
22.3076,31.0259,-68.9741,-3.8462,13.5898,15.1284,112.0513,-10.5127,-21.7949,2.3076,-39.7437,-42.3076,-2.3076,22.3076,
11.0259,31.0259,-72.564,-4.8716,6.9229,5.8975,104.8716,-17.6924,-22.3076,3.8462,-40.769,-46.9229,-3.8462,14.1025,
19.9998,33.8459,-69.7434,-4.6155,4.6155,7.1794,106.6667,-15.3845,-23.0769,10.2566,-44.1028,-47.6921,-7.6921,16.4104,
21.0259,28.7178,-55.8975,-5.1284,3.5898,6.1538,116.9229,-3.5898,-15.8975,15.8975,-36.4102,-38.9741,-7.1797,22.0513,
8.718,28.2053,-49.2307,1.0256,1.5383,-5.1282,113.8464,-6.1536,-11.7947,20.5129,-28.2053,-28.718,-1.0256,17.949,
1.282,26.9231,-34.2307,12.5642,-13.4617,-20.1282,125.3845,-1.282,-1.7952,31.5383,-13.2053,-13.718,6.9231,18.2048,
-6.6665,11.9231,-19.2307,18.4614,-28.4617,-35.1282,133.8462,8.2051,0,31.2822,-5.1279,0,-3.5898,15.8975,
-17.6924,4.3589,-22.3076,24.3589,-43.4617,-42.3076,130,8.4614,-2.8203,24.3589,-4.3589,2.8203,-10,11.5386,
-32.6924,1.2822,-14.6155,25.3848,-58.4617,-50.5129,130,4.3589,-1.2822,19.7437,-1.2822,11.5386,-8.4617,7.9487,
-44.6154,-4.1024,-8.7179,27.1796,-73.4617,-52.3075,131.7948,11.7948,1.5385,21.5385,-1.5385,15.8973,-10.2562,8.7181,
-40,-10.2563,-7.1794,30.2563,-88.4617,-56.9231,133.8462,18.4614,3.5898,21.5386,0,15.3848,-17.4358,0,
-36.1539,-1.7948,-3.3334,36.1539,-85.8973,-56.6666,135.1281,13.59,2.8204,21.2819,1.7948,20.2565,-16.6666,-2.8204,
-34.1025,5.3845,-11.5386,31.5383,-70.8973,-48.4617,128.4617,6.9231,-5.3845,20.7693,-7.436,14.1028,-10.5129,6.9231,
-28.4617,1.282,-8.4617,27.9485,-55.8973,-41.2822,135.1282,13.5896,-1.282,24.3586,-5.3845,11.0256,-5.8977,15.1282,
-22.5642,0.51294,-10.2566,30.7693,-51.7949,-36.9231,133.3333,9.2307,-0.51294,23.0769,-5.1282,11.282,-8.718,11.7947,
-21.5383,3.5898,-12.3076,30.7695,-49.2307,-34.3589,129.231,1.5386,-1.5386,23.0771,-1.5386,10.7695,-7.6924,9.7437,
-32.8206,0,-14.8721,25.6406,-53.8464,-34.8721,125.1279,1.5381,0,22.0513,-0.51318,7.6924,-8.2051,6.6665,
-31.5383,2.3076,-16.6665,28.4614,-58.718,-28.4614,122.8208,0.76904,-0.76904,18.2051,-4.3589,1.7949,-8.4614,6.4102,
-20,6.1538,-4.6152,34.8716,-66.6667,-32.3079,131.7949,-4.6152,-2.0513,18.4614,2.0513,4.6152,-8.718,7.6924,
-11.282,10.2566,-6.1538,35.8977,-58.9744,-43.0769,133.8459,-2.5642,-4.6155,20.5129,2.5642,9.2307,-14.8718,4.1028,
-15.6411,5.8972,-11.5386,34.6155,-57.6924,-50,129.4871,5.8972,-4.8718,20.2566,2.8206,9.9998,-19.7437,-2.8206,
-23.0768,-0.51282,0.51282,39.9999,-71.2821,-45.641,132.3075,10.2565,-1.0255,20.5131,10.2565,19.9999,-12.8204,-3.0768,
-34.1025,-5.8975,4.8718,40.2563,-86.2821,-47.9487,132.0513,2.8206,-5.3845,15.1282,5.8975,22.8208,-17.1794,-2.8206,
-49.1025,-20.8975,10.2566,37.949,-101.2821,-62.9487,136.4104,3.0769,-3.0769,16.4104,11.7949,26.6667,-28.7178,-6.6665,
-64.1025,-33.3334,9.2308,34.8717,-116.2821,-77.9487,130.7692,2.5641,-2.5641,18.4615,10.7694,29.2311,-31.2819,-10.7692,
-69.7435,-30.2565,15.3846,38.4615,-108.7179,-75.3846,130.7692,0.51282,-0.51282,22.5641,12.3077,33.8463,-19.4872,-4.1027,
-56.1538,-29.4873,19.2307,45.3848,-104.8718,-78.2051,133.5898,-1.282,1.282,19.7437,15.1282,39.7437,-19.2307,-1.7949,
-41.1538,-16.6667,6.4102,46.4104,-89.8718,-64.8718,124.8718,1.7949,-1.7949,12.564,4.8718,30.5129,-25.8975,-3.3335,
-30.5129,-9.4873,7.4358,43.8459,-74.8718,-53.0769,128.9744,0.25635,-1.282,16.1541,4.3589,20.2566,-20.7693,-0.25635,
-30.7693,-11.7949,13.3333,49.2307,-68.718,-53.3333,138.4617,-5.1282,-4.6155,18.4617,5.1282,19.4871,-14.3589,4.6155,
-36.4103,-8.2052,6.6666,51.2821,-67.6923,-49.2308,133.3334,-2.5641,-6.6666,12.8204,2.5641,19.4872,-14.359,4.1027,
-45.641,-4.6154,2.5641,46.1537,-73.8461,-46.6666,126.6669,-0.51282,-2.0511,12.3077,5.641,20.5131,-16.923,0.51282,
-38.9745,-4.1027,1.5385,43.5897,-73.3334,-44.6154,128.205,-9.7435,-1.5385,15.8973,8.205,19.9999,-17.9489,3.0768,
-42.0513,-14.3591,2.0513,35.3845,-80,-45.6411,128.718,-13.3335,-2.0513,9.7434,7.1794,16.4104,-21.5386,2.564,
-36.1539,-3.3334,-0.25647,38.7181,-65,-32.0511,124.3588,-2.3077,0.25647,13.077,6.4103,15.1283,-17.6923,6.4103,
-21.1539,11.6666,-8.4617,45.8972,-50,-17.0511,120.2566,-4.3591,-2.8206,20.7693,2.8206,7.4358,-14.1025,12.5642,
-6.1539,19.7437,-11.5386,41.2822,-40.2563,-4.8716,121.2822,-12.0513,-2.8203,19.7437,2.8203,4.8721,-13.0767,17.1797,
-2.051,24.1028,-17.9485,33.8459,-33.8462,1.5383,116.4104,-10.7693,-2.5642,17.4358,-1.5383,4.6155,-6.6667,21.0256,
6.1538,22.564,-18.4614,32.3076,-27.6924,-3.0771,117.9487,-8.2051,0,17.436,-0.5127,0,-5.1284,15.8975,
13.5901,23.3333,-17.6921,33.0769,-19.7434,-1.282,117.1794,-10.5129,-1.282,14.1028,1.282,-2.8206,-5.3845,9.4871,
11.5383,28.9744,-21.7947,25.8977,-13.5896,3.3333,106.9231,-21.282,-7.9485,6.9231,-4.8718,-9.9998,-3.3333,14.1028,
7.1794,25.6409,-11.7952,25.1282,-21.5383,-6.6667,116.9231,-21.0256,-2.0515,10.7693,1.0256,-8.2053,-1.0256,21.5383,
8.4614,21.2822,-15.6411,28.9741,-27.436,-13.5898,124.3589,-16.1538,0.25635,15.1284,-0.25635,-2.8203,-4.3589,16.1538,
0.76953,18.7183,-18.2051,30,-34.6152,-19.7437,123.8462,-15.6411,-1.7949,13.5898,-0.25635,0.25635,-5.8975,7.9487,
-0.76929,20.7693,-8.4612,36.1541,-31.0254,-19.7434,122.8206,-13.0769,-0.76929,14.6155,0.76929,4.3591,-5.8972,10.0002,
11.0259,26.9233,-9.4868,37.6924,-16.1538,-5.3843,120.2568,-10,-3.8462,19.231,-4.3589,3.8462,-7.4355,19.231,
7.6924,19.4873,-16.9233,32.8203,-22.0513,-10.7695,118.4614,-18.4614,-7.6924,18.9741,-4.6152,4.6152,-5.6411,20,
9.7437,22.0513,-20,37.436,-14.8716,-6.6665,113.3335,-20,-8.2051,14.8721,-5.6411,0,0,21.5386,
14.6152,30,-19.7437,35.1279,-7.9487,5.8975,108.4614,-12.0513,-11.0259,11.5386,-8.9746,-7.9487,-5.8975,24.8716,
18.7178,29.4868,-22.8208,27.9487,-16.667,3.8462,108.9741,-13.5898,-13.0771,14.1025,-7.9487,-3.8462,-10.5132,19.7432,
26.1541,24.1028,-29.7434,24.1028,-11.282,4.6155,110.2566,-22.051,-10.7693,11.282,-11.282,-4.6155,-5.1282,16.9231,
16.4099,13.3333,-27.1794,21.0256,-6.1541,1.5383,109.7434,-26.6667,-6.6667,7.6921,-10.7693,-10.7693,-1.5383,18.4617,
15.1279,19.231,-25.3848,24.8716,-4.3589,-0.25635,104.8716,-26.4102,-3.3335,13.0767,-8.4614,-12.564,0.25635,20.769,
17.6924,24.8716,-26.9233,19.231,-14.6152,-0.25635,104.3589,-27.9487,-3.8462,12.0513,-10,-16.1538,0.25635,14.6152,
16.4106,17.9487,-23.0767,15.3848,-19.4868,2.0513,105.6411,-28.7178,-5.1279,5.1284,-11.2817,-15.3843,-2.0513,6.667,
29.2305,24.6152,-22.0513,24.6152,-4.4868,2.0513,105.1279,-25.6411,-7.6924,2.0513,-10.2568,-15.8975,-4.1025,12.3076,
32.3079,33.8464,-15.8972,30.7693,-5.1282,-1.0256,115.8977,-21.0256,-5.1282,7.6926,0.51294,-7.6921,-0.51294,17.949,
17.3079,24.8716,-20.7695,29.4873,-20.1282,-5.8975,111.5386,-22.8208,-7.9487,6.4102,-0.25635,-4.3589,0.25635,14.1025,
10.769,17.436,-18.9741,31.7949,-29.7437,-13.3335,105.6411,-21.0254,-6.6665,7.6924,-0.5127,-1.5386,0.5127,15.3848,
4.3589,11.5381,-14.1025,25.8975,-30.0002,-21.7949,106.4102,-23.8462,-10,5.8975,-2.3076,2.3076,-6.9233,12.0513,
8.9744,20.7693,-18.2053,28.9744,-19.2307,-6.7949,106.4099,-20.7693,-10.0002,5.3845,-3.8464,2.8206,-3.3333,21.282,
11.2817,23.5894,-17.436,31.7949,-22.0513,2.0513,102.564,-17.436,-7.6924,3.0767,-2.0513,-4.1025,-2.5645,24.1025,
20.769,28.9741,-11.5386,38.2051,-12.0513,-0.25635,102.8203,-15.1284,-6.4102,6.4102,-3.3335,0.25635,-3.8462,17.1797,
19.2305,23.8462,-17.6924,35.6411,-10,-1.7949,98.7178,-20.2563,-13.5898,3.333,-12.0513,1.7949,-7.436,8.9741,
11.2822,14.8716,-8.7178,35.8975,-25,-10.769,104.6152,-15.3848,-8.7178,3.5898,-3.5898,6.1538,-4.1025,12.8203,
2.8203,9.4873,-7.436,32.0513,-38.718,-22.3079,99.7437,-19.231,-7.436,2.3076,-1.7949,1.7949,-3.3335,10,
-2.0515,3.0769,-8.718,29.7434,-29.7437,-16.4104,98.9744,-22.5642,-4.6155,7.6921,4.6155,1.0256,-1.0256,8.2048,
-4.3594,-0.25635,-13.0771,28.4614,-19.231,-1.4104,97.6919,-19.7437,-5.8975,8.4614,3.333,2.8203,0.25635,16.6665,
-3.8462,1.7949,-17.1797,25.8975,-22.8203,1.2822,92.0513,-24.3589,-10.5127,3.3335,-0.25635,-0.76904,0.25635,22.8203,
0.25635,1.7949,-9.4873,32.564,-33.0769,-13.7178,92.0513,-23.8462,-7.9487,2.8203,8.4614,-0.25635,-2.3076,11.5386,
10,7.436,-13.0767,35.1284,-24.8718,-7.9487,85.3848,-16.1538,-10,-1.7949,7.436,1.7949,-8.4614,4.8721,
1.282,3.3333,-15.6414,29.4871,-28.9746,-1.7952,81.7947,-18.718,-11.0256,-1.282,3.8459,2.8206,-13.5901,12.5637,
-5.1284,2.0513,-9.231,33.8462,-39.4873,-7.6924,89.231,-20.5129,-2.0513,9.231,9.7437,7.6924,-13.3335,15.3848,
-4.8718,5.385,-14.615,28.9744,-42.3076,-9.4871,87.949,-14.615,-5.3845,7.4363,4.8718,6.4104,-14.615,8.4617,
-3.0769,3.0769,-8.2048,32.8206,-35.3845,-6.6663,88.718,-7.1794,-5.6409,7.6926,7.6926,12.8206,-8.2048,11.7952,
-0.25659,1.7947,-11.5383,36.1541,-30,-9.4871,78.718,-18.2051,-9.4871,4.8718,0.25659,6.9231,-9.4871,11.5383,
1.2822,8.4614,-11.0254,32.564,-38.718,-11.0254,76.1538,-22.3076,-5.3848,7.436,-1.2822,4.3589,-11.5386,9.4873,
-1.5383,4.1028,-11.282,28.718,-44.6155,-15.8972,74.8718,-21.0256,-3.0769,10.7693,1.5383,7.1794,-13.3333,7.6921,
-0.76929,0.76929,-14.1028,33.0769,-37.6924,-16.1541,73.5896,-22.3079,-4.3591,22.3074,5.3845,9.9998,-10.5129,9.9998,
-14.3589,-1.5386,-8.7178,32.8208,-52.6924,-21.0256,75.8975,-22.564,1.5386,33.8462,11.2822,16.4102,-9.2305,8.2051,
-19.2307,-2.3079,-12.051,33.0769,-52.0513,-20.7693,67.949,-19.7437,2.3079,26.9231,6.4104,14.1028,-13.0769,7.949,
-11.7952,-2.5642,-12.8206,34.3586,-37.0513,-15.3845,68.718,-13.8464,2.5642,20.5125,8.2048,8.718,-12.3079,13.8459,
-9.2307,-1.0256,-6.6667,32.8206,-37.9487,-15.3848,70.7693,-16.9231,1.0256,19.4871,9.7434,6.6667,-13.3333,11.282,
0.51294,5.6409,-2.0515,37.4358,-39.4871,-12.8206,66.1541,-23.5898,-4.1028,12.8206,-0.51294,0.51294,-14.8718,3.0769,
3.0771,2.564,2.0513,38.4614,-40,-16.4102,70.2563,-22.5642,-7.1797,6.1538,-6.1538,1.0259,-16.4102,-1.0259,
0,4.6152,0,35.8975,-28.718,-11.7949,71.2817,-17.436,-8.2051,9.7437,-6.667,7.6924,-13.3335,6.1538,
-7.6924,1.5386,3.0771,30.2563,-28.2051,-9.2305,67.1797,-23.5896,-8.7178,13.3335,-1.5386,3.5898,-10.2563,8.2051,
-18.9744,-9.7437,11.2822,27.6924,-41.5386,-15.8975,68.2051,-27.1794,-2.564,13.3335,2.564,4.6152,-4.1025,6.1538,
-22.0513,-11.2822,8.718,27.6921,-47.1794,-22.0513,66.1536,-16.9231,0.51294,15.3845,-0.51294,8.2048,-4.1028,4.6155,
-17.9485,-11.7947,17.436,32.3076,-51.7947,-33.8459,70.7695,-9.7434,2.0513,18.4614,9.231,13.8462,-10.769,-2.0513,
-8.9742,-5.8973,22.8207,42.3075,-47.9486,-28.9742,74.1024,-13.5897,1.2821,15.641,11.5385,18.205,-14.1024,-1.2821,
-12.5642,0.76904,17.1792,41.7949,-51.5386,-18.2053,67.4355,-16.6667,-5.3848,6.9229,-0.25635,12.564,-17.6924,0.25635,
-12.564,1.282,23.8462,44.3589,-55.6409,-19.7437,70,-5.3845,-2.8206,11.0259,4.3589,19.231,-12.564,-1.282,
-11.0256,-4.8718,23.8462,44.8716,-55.6411,-26.4102,71.0259,-5.8975,-0.25635,18.2051,5.3845,21.7949,-10,0.25635,
-26.0256,-19.8718,23.8462,37.6924,-70.6411,-41.282,66.4102,-16.6667,-1.7949,14.1025,3.3333,20.769,-20.2563,1.7949,
-41.0256,-25.8975,26.4102,40.769,-79.2307,-41.7949,63.3335,-12.5642,0.76929,15.1282,10,28.9741,-22.8206,-0.76929,
-33.3335,-17.436,23.5896,47.1794,-71.7949,-31.7949,63.0769,-5.1282,0,21.0256,10.2563,26.6667,-21.0256,0,
-25.641,-14.359,23.0768,44.6154,-77.4359,-26.1539,61.0255,-7.6923,-2.5641,17.9489,2.5641,20.5128,-26.6666,3.0768,
-18.4617,-4.1028,16.9231,45.1282,-62.4359,-11.1539,56.4099,-7.6924,-1.0256,15.3845,1.0256,21.0256,-20,9.7434,
-15.1284,-4.3591,12.051,42.8206,-47.4359,-8.9746,56.1536,-11.5386,-3.3333,13.5896,3.3333,17.1794,-13.5898,10.5125,
-3.3333,1.282,13.0769,40.7693,-38.2051,-1.7947,57.1794,-16.1538,-5.8972,13.5901,-1.282,13.0769,-18.2051,16.6667,
-2.3076,0.25635,3.3335,31.0259,-40.7693,4.3589,44.3589,-20.769,-12.0513,5.3848,-14.1025,-0.25635,-20.769,16.6665,
-0.51269,0,2.0513,32.3076,-27.6921,9.231,48.2051,-11.2817,-4.6152,11.2822,-8.7178,0,-5.769,18.9746,
7.4355,5.8975,-10,27.9487,-12.6921,14.1025,43.8462,-17.6924,-10.5132,10,-18.2051,-8.9746,-6.4106,14.1025,
13.0767,9.4868,-10,20.769,-5.8975,12.564,42.3076,-22.8208,-11.0259,5.8975,-17.1797,-11.5386,-7.436,15.6411,
8.4614,7.9487,-11.0254,21.7949,-17.6924,6.9233,38.7183,-19.2305,-8.9741,5.3848,-11.0254,-8.4614,-5.3848,16.1538,
12.5642,15.6409,-17.1794,24.8718,-11.0256,14.6155,35.1282,-21.7947,-12.5642,6.9231,-16.1541,-15.6409,-6.9231,13.5896,
13.5896,14.1028,-11.5383,22.8206,-7.4358,15.1282,40.7693,-24.3591,-8.4617,7.4358,-13.5896,-18.2053,-7.9485,11.5383,
5.8975,7.436,-15.1279,21.7949,-15.6411,10,36.667,-19.7437,-5.8975,8.4614,-11.0254,-14.1025,-12.0513,14.1025,
-4.6152,5.6411,-11.7949,24.6152,-28.7178,8.2051,39.4873,-12.3076,0.51269,16.4102,-0.5127,-6.6665,-11.7949,19.4873,
-12.8208,-4.6152,-0.5127,25.6411,-37.9487,1.0254,41.5386,-16.9233,1.5386,10.769,0.5127,-6.667,-13.3335,11.2817,
-5.1282,-7.1794,8.718,33.3333,-35.8975,-1.5383,43.0769,-14.3591,5.6409,8.718,-1.0256,1.0256,-17.4358,11.282,
-16.1541,-16.1541,8.4617,29.9998,-50.8975,-15.6411,42.3074,-10.5129,0.76929,9.9998,-0.76929,7.9485,-28.4617,4.3586,
-18.2051,-15.1282,13.5898,35.6411,-55.6411,-14.1025,45.3848,-0.25635,-3.8462,13.0767,0.25635,11.0254,-20.7693,6.4102,
-17.9486,-19.9999,21.5387,40.0001,-58.9742,-17.4357,46.1539,-1.5385,-8.7179,6.6666,1.5385,10.7692,-20.5128,8.7179,
-18.7179,-24.8717,29.4869,43.8463,-64.359,-27.4359,53.0768,-3.8461,-3.8461,5.8973,7.4359,21.795,-25.3846,3.8461,
-22.8204,-26.9232,25.3846,42.3075,-63.3334,-30.0001,55.1283,0.76917,-1.7948,3.8461,4.359,22.8207,-22.3077,-0.76916,
-37.8204,-40.5129,30.2566,39.4871,-78.3334,-40,50.7693,0.51269,0,0,8.2051,24.1028,-24.6155,-2.0513,
-46.6666,-44.1024,35.8973,44.6156,-93.3334,-45.1281,47.1796,-5.641,1.5385,2.5641,12.8207,31.2821,-31.7948,-1.5385,
-47.4358,-39.7437,36.6667,46.4104,-88.9744,-44.8718,51.5383,-2.3076,2.3076,4.3589,13.0769,31.0256,-34.1025,-4.8718,
-51.0256,-45.8975,35.1284,43.3335,-90,-52.5642,47.9487,0.25635,-0.25635,0.76929,10,27.4358,-39.7437,-16.1538,
-37.6923,-42.3077,35.1281,51.0255,-78.2052,-49.9999,48.4615,-0.25647,0.25647,7.4359,14.6154,31.0255,-36.6666,-12.5641,
-36.6666,-51.5385,40.7692,48.4615,-82.3077,-55.641,59.2306,-3.3334,3.3334,7.4359,18.7179,32.0511,-32.5641,-8.4615,
-42.3076,-57.6924,44.3589,45.3845,-89.4871,-62.8206,60.7693,-1.282,2.3076,1.282,13.0769,35.6411,-33.5896,-10,
-47.9487,-52.564,46.4104,46.9231,-91.0256,-63.8462,52.0515,-0.76929,0.76929,0.76929,14.6155,39.2307,-41.282,-17.6924,
-53.5898,-53.0769,44.8718,46.9231,-96.6667,-61.7949,45.8972,-0.25635,0.25635,3.3333,14.1025,36.1538,-44.3591,-20.2563,
-47.6923,-46.1539,36.923,45.6407,-87.6923,-50.7692,42.0514,2.5641,-2.5641,7.1796,4.6154,31.2819,-42.0514,-7.1796,
-45.8973,-44.359,43.8463,45.8976,-87.4359,-60.7692,45.3844,-1.2821,1.2821,13.077,12.5641,35.6412,-42.8204,-4.359,
-45.8975,-46.9231,47.436,51.5386,-92.0513,-68.9744,43.3335,-4.8718,4.8718,12.0513,18.718,38.7183,-39.2307,-11.0256,
-48.9742,-51.5385,38.7181,45.8973,-99.2308,-63.8461,39.2308,-2.8204,2.8204,6.923,10.0001,31.0258,-31.5385,-12.5641,
-63.0769,-63.0769,36.9233,36.9233,-113.3333,-72.8206,43.0771,-1.0256,1.0256,1.5386,8.718,28.718,-37.4358,-20.5127,
-56.4102,-56.9231,39.4871,45.6411,-98.3333,-67.1794,43.5898,0,3.0769,0,13.8462,36.9231,-36.4102,-18.9744,
-45.8975,-48.9744,41.2822,50,-83.3333,-52.1794,41.2822,1.282,1.7949,-1.282,12.564,38.2051,-27.436,-10,
-40.0001,-42.5641,34.8717,47.6925,-72.8204,-40.5128,38.4615,1.0255,-0.51282,0.51282,4.6154,33.8463,-26.6666,-3.5897,
-32.8206,-35.8975,29.7434,49.2307,-58.4614,-32.3076,35.3845,-3.0769,-1.0256,4.6155,1.0256,28.718,-27.6924,4.6155,
-30,-38.2051,32.051,48.4617,-52.5642,-27.436,36.6667,-4.3589,-2.8206,4.8718,3.8462,24.8718,-30.5129,2.8206,
-19.4872,-34.8717,25.1281,47.6925,-45.1281,-18.4615,37.9489,0.51282,-2.0511,3.5897,6.1539,20.5128,-28.205,-0.51282,
-22.5642,-34.8718,22.0513,40,-45.6411,-28.718,33.8462,-3.0769,1.5383,-1.0256,6.1538,16.4102,-21.5386,1.0256,
-22.0511,-30.2562,28.7181,36.4105,-33.8461,-26.1537,31.2821,-6.1537,1.5385,-1.5385,2.5643,16.9232,-17.4357,6.6669,
-7.0511,-23.3333,21.7952,39.2307,-21.282,-11.1537,32.0515,-8.4614,-1.282,1.282,1.7952,10.5129,-17.6921,6.4104,
-5.1282,-27.1797,15.8972,36.9231,-31.7949,-14.8718,31.282,-12.8206,0.51294,2.051,4.6155,8.2048,-17.436,-0.51294,
-6.9229,-22.3076,15.6411,32.5645,-25.8972,-14.6152,22.8208,-12.0513,1.7949,1.7949,-1.7949,10.5132,-14.6152,2.8208,
-3.0767,-16.9231,15.8975,30.7695,-12.8206,-7.6924,24.1025,-4.6152,2.564,3.5898,-2.564,8.7183,-12.3076,7.6924,
1.7952,-20.7693,6.9231,31.0256,-15.6409,-10.5129,25.8977,-7.4358,-4.3591,0.76929,-0.76929,2.8206,-14.6155,1.7952,
10.5129,-13.5896,4.8718,33.0769,-12.0515,0.25659,23.3333,-5.3845,-8.4617,3.3333,-1.282,-0.25659,-9.4871,5.3845,
0.25635,-13.5898,8.9741,26.9229,-18.7178,2.8203,18.2051,-0.25635,-8.9746,0.76904,-3.8462,-0.25635,-12.0513,13.0767,
-2.0513,-9.7437,2.5645,29.7437,-15.8975,4.6157,16.9233,3.5898,-11.7949,-3.5894,-7.6924,2.0513,-13.333,22.0513,
2.8203,-7.9487,0.25635,33.0771,-18.2051,6.4102,17.1797,-1.2822,-12.0513,-0.25635,-5.8975,1.7949,-12.564,22.3076,
5.8975,-12.0513,0.25635,31.5386,-20.769,4.8716,11.0259,-8.4614,-8.4614,3.3335,-7.436,-0.25635,-18.7178,17.1797,
17.6921,-0.25659,-0.76929,37.1794,-5.769,17.6921,13.0769,-1.282,-3.8459,7.4358,-9.4871,0.25659,-15.6409,24.3591,
13.8462,0.5127,-1.5386,31.7949,-2.0513,16.4102,20,-0.5127,-9.7437,2.564,-8.7178,-3.5898,-11.7949,18.9741,
12.8206,1.0256,-9.7434,25.1282,3.5896,20.0002,13.8459,-5.1282,-14.3591,-1.0256,-13.8459,-6.6667,-5.6409,18.9744,
16.1538,1.7949,-14.1025,24.8716,14.1025,23.8462,8.9741,-7.436,-14.6157,-1.7949,-17.6924,-10.5132,-6.9233,26.4102,
22.0513,2.0513,-10.769,27.6924,16.9233,19.4873,11.7949,-8.7178,-14.3589,-2.0513,-14.8716,-12.3076,-8.2051,23.5898,
34.8718,16.9231,-22.0515,24.6155,31.9233,33.3333,2.5642,-8.718,-18.4617,-4.1028,-21.5388,-18.4617,-2.5642,25.1282,
37.1797,20.769,-25.8975,19.7437,30.5127,41.7949,0.25635,-10,-16.1538,-3.8462,-22.8203,-19.7437,-0.25635,34.1025,
35.6414,17.1794,-25.8972,18.718,22.8206,37.6926,2.8206,-13.0769,-15.1282,-2.8206,-23.3333,-19.2307,-4.3586,32.5642,
41.0254,26.6665,-28.7183,17.9487,37.8206,47.6919,2.0513,-6.1538,-14.8721,-2.0513,-25.1284,-21.0259,-3.5898,31.2817,
41.0254,30.769,-30.769,16.4102,44.1025,58.9741,0,-0.5127,-12.3076,-3.0771,-21.5386,-21.0259,0,37.436,
40.5129,26.6667,-33.3333,15.3845,37.9485,59.4871,-4.1028,-9.2307,-12.8206,-1.5383,-21.0256,-22.0515,1.5383,39.4871,
38.9741,17.9487,-29.231,9.231,33.3335,44.6152,-3.0771,-18.4614,-13.3335,-2.0513,-24.1025,-23.0771,2.0513,26.6665,
45.6411,23.5898,-26.1538,11.2822,41.0254,45.1284,-4.1025,-17.436,-14.8716,-6.1538,-26.6665,-23.0771,4.1025,18.9741,
49.2307,30.7693,-32.3079,14.3586,31.7947,52.3074,-5.1282,-14.8718,-16.4104,-8.2053,-22.5642,-24.6155,5.1282,25.6409,
41.2822,22.3076,-36.6665,9.4873,18.7178,43.8462,-6.4102,-12.0513,-16.6665,-8.4614,-22.8203,-21.7949,6.4102,25.3848,
49.7434,21.0256,-40.0002,9.2307,33.7178,41.0256,-11.7952,-10.2566,-22.0515,-9.2307,-31.282,-24.1028,11.282,20.5129,
56.6665,22.3076,-37.6924,10,48.7178,38.2051,-10,-16.6665,-19.7437,-10.5127,-24.3589,-28.4614,14.1025,24.3589,
59.231,26.4102,-35.1284,10,52.564,41.2822,-11.5386,-20.2563,-15.6411,-9.4873,-19.231,-30,9.4873,32.564,
65.1282,34.8718,-22.5642,10.2566,61.0256,54.3591,-15.3845,-13.8459,-18.9744,-6.1541,-25.6409,-34.8718,6.1541,38.4617,
57.9487,29.2305,-8.7183,7.1792,57.4355,52.8203,-14.3589,-14.8721,-19.4873,-6.1538,-27.1797,-35.8975,6.1538,31.2817,
60,31.2822,-13.8462,10.2563,56.4102,52.3076,-13.8462,-16.9229,-17.436,-5.6411,-30.2563,-35.8975,5.6411,31.2822,
70.5127,38.7178,-13.0771,11.5386,54.1025,57.6924,-11.5386,-11.0259,-16.6665,-3.3335,-31.5386,-36.1538,3.3335,35.6411,
70.5129,36.6667,-9.4871,8.4617,53.5901,60.7693,-12.5637,-10.5125,-16.6667,-3.3333,-27.4358,-34.1023,3.3333,32.0515,
64.1023,33.8459,-14.3591,11.282,56.9231,61.0256,-18.9744,-15.3845,-18.9744,-4.6155,-27.1794,-35.3845,4.6155,28.718,
58.4617,35.3845,-8.718,12.3079,47.1794,52.8206,-17.4358,-12.8206,-21.5383,-3.0769,-28.2053,-30.7693,3.0769,26.6667,
60.5129,38.4617,-7.1794,4.6155,40.0002,50.2566,-14.8718,-9.7434,-18.9744,-3.0769,-29.2307,-28.2048,3.0769,26.6667,
52.3079,24.6155,-2.5642,2.0515,25.6414,40.5129,-9.7434,-11.282,-7.6921,-1.0256,-18.9744,-27.1794,1.0256,24.1028,
39.2307,9.6155,1.282,8.9744,14.1028,27.949,-7.9485,-11.5383,-5.3845,-1.282,-16.1536,-20.2561,-4.3586,14.6155,
38.9744,12.8206,1.5383,10.2566,17.4358,31.7947,-7.1794,-6.1536,-10.7693,-1.5383,-17.9485,-12.3079,-4.1023,14.8718,
32.0515,8.9744,11.5383,9.4871,2.4358,24.8718,-1.282,-1.282,-7.9485,-1.7947,-10.5129,-6.4104,-6.4104,19.7434,
33.5898,10.5127,15.6411,21.2822,-1.2822,18.7178,-2.8203,0.76904,-5.3848,-2.3076,-12.564,-0.76904,-10,19.231,
31.0256,7.4358,9.4871,17.1794,1.282,13.5896,-12.0515,-6.9231,-13.0769,-7.949,-20.2566,-1.282,-13.0769,7.9485,
28.9744,4.8718,7.949,13.0769,4.8718,14.1028,-13.0769,-4.8718,-15.1282,-11.5383,-22.8206,-5.3845,-15.6409,5.8977,
36.1538,13.0771,-0.25635,18.2051,6.9233,21.2822,-16.1538,0.25635,-19.7437,-17.1792,-30,-16.1538,-18.7178,13.0771,
37.1794,15.1282,3.3333,18.718,1.282,22.8206,-14.1023,-1.282,-20.7693,-14.6155,-25.8972,-14.1023,-16.6667,16.1541,
40.5127,15.8975,7.6924,14.8716,16.282,30.2563,-13.8462,-7.6924,-20.5127,-10.2563,-27.1797,-11.2822,-11.7949,14.8716,
45.3843,17.1792,5.8975,14.6152,31.282,34.1025,-10.5132,-5.8975,-18.2051,-11.5386,-31.0259,-18.2051,-8.4619,17.1792,
41.5386,13.333,5.6411,16.9229,18.4614,26.6665,-11.7949,-5.6411,-18.4614,-12.3076,-28.7183,-15.8975,-10.7695,13.8462,
49.2305,24.6152,6.1538,21.5386,27.6924,36.4102,-12.8208,-6.1538,-15.8975,-7.6924,-25.6411,-7.1797,-17.436,15.3843,
44.3589,19.2305,3.8462,13.0767,33.5894,32.0513,-12.0513,-3.8462,-18.7183,-14.6157,-29.4873,-15.6411,-32.436,8.9741,
43.5901,11.7952,1.0256,9.7439,35.385,30.2566,-15.8972,-1.0256,-23.0769,-15.8972,-32.8206,-22.5637,-31.7947,5.1282,
56.4106,17.436,4.1025,14.3594,33.8462,40.5132,-13.8462,-4.1025,-17.9487,-6.6665,-23.5894,-16.4102,-23.5894,14.3594,
54.1025,14.6152,9.4873,13.5898,23.3335,33.0767,-9.4873,-10,-13.5898,-11.0259,-21.2822,-13.0771,-30.5127,16.1538,
58.9746,22.5645,4.1025,20,33.3335,34.3594,-12.8203,-4.1025,-11.2817,-7.6924,-28.7178,-12.3076,-26.6665,18.4619,
68.4614,32.564,-1.7949,26.9229,41.2822,44.3589,-16.1538,-1.2822,-12.564,1.2822,-29.4873,-11.0254,-18.2051,19.231,
72.3079,38.4617,-2.5642,24.6155,43.5901,53.3333,-19.9998,2.5642,-18.4617,-3.5896,-28.718,-14.3586,-26.1536,19.4871,
62.0513,35.3848,-3.5898,14.3589,33.3335,52.3076,-28.7178,3.5898,-24.1025,-11.7949,-34.3589,-22.564,-39.4873,15.3848,
58.2051,34.6157,-2.3076,19.231,21.2822,47.436,-25.3843,2.3076,-18.7178,-6.4102,-33.5898,-16.6665,-37.1792,14.1025,
71.5386,42.8208,-4.3589,27.9487,29.4873,55.6411,-20.2563,4.3589,-17.6924,-6.4102,-33.0767,-12.0513,-35.1279,22.3076,
65.1284,31.7949,-0.5127,16.9229,25.1284,49.7437,-24.1025,0.5127,-19.4873,-16.9229,-33.8462,-17.9487,-42.564,18.4614,
62.5642,27.1794,-1.0256,12.8206,31.282,44.6155,-27.1794,1.0256,-16.9231,-17.9485,-32.8206,-21.0256,-36.9231,11.282,
77.5642,38.9746,-5.6411,17.9487,46.282,59.6155,-23.0771,5.6411,-17.436,-14.3589,-34.8716,-22.564,-22.564,17.436,
79.2307,34.6155,0.76929,14.1023,48.9744,63.3333,-20.7693,-0.76929,-16.6667,-13.5896,-32.0515,-19.7434,-24.8718,23.8459,
81.0256,36.4104,0.51294,20.0002,50.7693,63.5901,-20.5129,-0.51294,-8.718,-3.5896,-25.6409,-12.8206,-23.0769,28.2053,
73.8459,31.282,-3.0769,19.9998,53.8459,57.9485,-18.9744,3.0769,-7.1794,-4.6155,-23.5896,-16.4104,-18.4617,21.0256,
62.8208,18.7183,-0.25635,16.667,42.8208,47.436,-21.2817,0.25635,-12.0513,-16.1538,-25.8975,-19.7437,-27.9487,14.6157,
63.0769,21.5383,3.0769,23.5896,39.4871,45.1282,-24.1028,-3.0769,-10.7693,-11.282,-26.6667,-16.4104,-33.3333,17.9485,
57.6924,20.769,-0.25635,23.8462,35.1279,43.333,-23.3335,0.25635,-10.5132,-6.9233,-23.8462,-16.1538,-31.0259,17.6924,
51.282,18.9744,-4.6155,19.9998,34.8718,47.1794,-25.1282,4.6155,-16.4104,-11.282,-27.1794,-20.5129,-34.3591,22.5642,
37.1794,11.0256,-1.282,16.1541,19.8718,39.2307,-24.3591,1.282,-18.2053,-16.6667,-26.4104,-21.282,-42.8206,18.718,
37.9487,11.2822,0.5127,17.9487,13.3335,38.4614,-26.1538,-0.5127,-16.9233,-20,-25.1284,-15.8975,-40,8.7178,
49.4871,18.718,0.76929,16.1541,20.2566,42.8206,-29.4871,-0.76929,-20.7693,-21.282,-29.9998,-16.6667,-37.6921,12.0515,
35.3845,3.718,9.2307,8.718,5.2566,27.8206,-23.5896,-2.5642,-17.9485,-18.4617,-22.5642,-11.7947,-36.4104,8.2053,
38.2051,-2.3076,13.5898,13.5898,13.0771,18.2051,-19.7437,0.25635,-6.4102,-13.0771,-14.1025,-0.25635,-21.4104,5.3848,
32.8206,-5.1282,13.3333,13.8459,6.1536,13.8459,-22.0515,-0.51294,-6.1541,-12.3079,-13.3333,0.51294,-22.5642,5.6409,
28.2051,-6.6665,14.3589,15.8975,0,10.2563,-23.0767,0,-4.6152,-10.2563,-11.2822,3.0771,-24.1025,7.6924,
25.8975,-6.4102,17.1797,19.231,-3.8462,8.9741,-22.3076,1.7949,-1.7949,-6.4102,-7.436,7.436,-23.8462,11.0254,
20.7693,-9.4875,17.1794,19.7434,-11.0256,4.8718,-23.8464,1.282,-1.282,-5.385,-5.8977,8.9744,-26.4104,11.5383,
15.8972,-11.7952,17.4358,20.5129,-17.4358,1.0256,-25.6414,0.51294,-0.51294,-4.1028,-4.6155,10.2561,-28.718,12.3074,
11.7947,-12.8206,18.9744,23.0769,-22.5642,-2.0515,-25.6409,1.5383,1.5383,-1.5383,-1.5383,13.3333,-29.7434,14.8718,
0.25635,-17.1797,18.2051,21.2822,-33.0767,-8.4614,-27.436,4.8716,4.8716,-0.25635,-3.8462,17.1797,-36.1538,18.2051,
8.4612,-15.6414,12.051,23.8459,-23.8464,-0.76929,-28.4617,3.3333,-1.282,0.76929,-12.0515,12.5637,-36.6667,19.7434,
5.8975,-19.7437,18.7178,23.8462,-21.2822,0.25635,-22.8203,5.8975,-3.3335,-0.25635,-5.3848,10.5127,-27.9487,10.5127,
-2.5637,-19.4871,22.5642,30.2566,-21.5383,-5.1282,-21.5383,12.3079,-1.0256,1.0256,1.0256,17.949,-22.051,3.5901,
2.051,-13.8464,15.8972,31.7947,-25.6414,-6.1541,-23.0769,10.7693,-1.0256,1.0256,-2.5642,15.8972,-21.5388,5.1282,
11.7949,-4.1025,23.5898,31.7949,-18.4614,0.51269,-18.4614,11.7949,-0.5127,-3.5898,-1.0254,15.8975,-20.5127,11.2822,
7.9487,-1.7949,17.1797,25.3848,-6.4102,1.7949,-30.5127,3.8462,-14.1025,-16.6665,-14.1025,10,-26.9229,6.4102,
6.4106,-3.8462,19.231,30.5132,-6.9229,3.8462,-27.9487,4.8721,-9.4868,-6.9229,-8.9741,15.6411,-18.2051,11.0259,
9.2307,-7.1794,11.7952,28.718,-14.8718,7.1794,-30.7693,7.1794,-9.7434,-8.2048,-11.7947,12.8206,-19.9998,17.4363,
19.9998,-1.5383,1.5383,21.0256,-9.7434,16.9231,-36.9231,6.6667,-15.3845,-15.3845,-17.4358,7.1794,-24.1028,19.4871,
18.4617,-1.5383,1.5383,17.4358,-9.2307,16.4104,-35.3845,3.0769,-14.3591,-14.3591,-12.8206,7.6926,-19.4871,11.282,
21.7952,2.8206,-2.3079,20.7693,-5.8972,19.7439,-39.7434,2.8206,-16.6667,-14.6155,-18.718,2.3079,-17.1794,9.4871,
28.7178,9.7437,0.5127,22.564,-3.5898,24.1025,-37.9487,5.6411,-13.8462,-12.8203,-20.5127,-0.5127,-11.7949,18.4614,
32.0513,13.0767,-5.3848,19.7437,4.8716,27.9487,-38.7178,0.76904,-15.6411,-12.564,-21.2822,-0.76904,-6.9233,17.1797,
44.1028,22.5642,-14.3586,20.0002,19.8716,42.9487,-43.0769,3.0769,-18.4612,-12.3074,-24.6155,-6.6667,-3.0769,20.5129,
53.5896,23.3333,-17.1794,17.6921,25.8972,47.4358,-48.4617,5.3845,-19.2307,-17.1794,-29.4875,-16.1541,-5.3845,23.8459,
57.436,26.1538,-21.0254,17.436,30.7695,51.2822,-50.769,0,-16.4102,-15.3843,-33.333,-17.4355,0,24.6157,
49.4871,23.3333,-23.3333,13.5896,31.0256,51.5383,-47.9485,-6.4104,-13.5896,-9.4871,-30.5129,-15.1282,6.4104,23.3333,
53.8459,24.1023,-28.718,13.8459,38.4612,58.9744,-48.2053,-3.0769,-17.4363,-13.3333,-31.7952,-19.4875,3.0769,27.1794,
59.4873,31.7949,-36.4102,12.3076,44.6152,68.2051,-54.3589,0,-25.1284,-23.5898,-41.5386,-27.6924,0,30.769,
47.1794,30.7693,-32.8206,6.1541,30.7693,63.0769,-55.8972,-4.1028,-25.1282,-26.1541,-39.9998,-25.6409,4.1028,30.2566,
54.6152,35.6411,-32.0513,9.4873,39.7437,71.5386,-55.6411,-9.4873,-24.8721,-22.3076,-38.2051,-26.9233,12.0513,31.5386,
60.2563,34.1025,-32.564,7.436,51.5386,75.6411,-54.6152,-7.436,-24.8716,-23.333,-38.2051,-32.564,10.5127,25.8975,
49.7437,31.2822,-30.2563,0.5127,44.6152,66.6665,-56.9229,-0.5127,-22.0513,-23.5898,-34.8716,-29.231,6.6665,23.5898,
50.0002,39.2307,-28.9744,2.8206,41.282,67.4358,-56.1536,-2.8206,-19.2307,-18.2053,-28.4617,-23.8459,12.0515,32.5642,
47.4358,27.949,-21.282,6.9231,26.9231,55.1282,-48.9744,-6.9231,-18.718,-16.1536,-22.8206,-19.2307,13.5896,27.4358,
41.282,13.5896,-23.8459,4.3591,14.6155,40.2566,-55.1282,-4.3591,-22.8206,-21.7947,-31.5383,-19.7434,5.8972,12.4358,
32.8206,19.4871,-25.1282,1.0256,12.3074,40.5129,-58.4617,-1.0256,-21.5383,-25.6409,-33.8464,-19.4871,6.6667,9.7434,
23.5898,21.5386,-16.9229,4.1025,7.1797,40,-53.333,-4.1025,-15.8975,-23.0767,-25.6406,-11.2817,9.231,18.4619,
27.6924,16.4102,-10.2563,11.7949,0.5127,37.436,-46.1538,-0.51269,-12.8203,-15.8975,-18.9741,-2.0513,7.1797,26.6665,
20.2563,3.8462,-10,8.9741,-14.4873,22.436,-45.8975,-0.76904,-17.6924,-21.7949,-20.2563,1.7949,0.76904,15.6411,
14.6152,6.4102,-11.0259,12.0513,-18.7178,17.6924,-51.0259,-3.3335,-17.1797,-25.8975,-23.8462,3.3335,4.3589,7.436,
15.6411,12.564,-4.8716,17.6924,-19.7437,19.231,-47.9487,0.76904,-10.5127,-22.3076,-18.2051,-0.76904,6.4102,11.0259,
11.0259,4.3589,-4.3589,16.1538,-27.9487,14.1025,-43.3335,3.8462,-8.9741,-22.3076,-15.6411,-0.76904,0.76904,7.9487,
9.7434,1.5383,-14.3591,15.3845,-12.9487,18.4612,-49.2307,-1.0256,-12.8206,-22.5642,-23.0769,1.0256,5.6409,8.718,
7.436,2.3076,-13.5898,16.1538,-10.5127,17.1797,-52.564,-1.7949,-13.5898,-18.2051,-19.7437,1.7949,12.0513,16.1538,
7.9487,8.9741,-15.1284,14.6152,-13.0771,18.7178,-53.0771,2.3076,-17.6924,-19.7437,-17.6924,-2.3076,8.4614,19.7437,
8.718,12.3079,-13.8459,11.7952,-7.1794,26.1541,-52.8206,5.1282,-15.3845,-21.5383,-17.9485,-5.1282,8.718,20.5129,
6.9231,5.8972,-4.8718,14.1023,-11.0256,23.3333,-48.9744,-0.76929,-6.4104,-14.6155,-15.1282,0.76929,14.1023,17.6921,
20.2561,13.0769,-9.4875,20.7693,-3.3337,31.5383,-48.4617,-1.282,-7.949,-6.9231,-16.6667,1.282,20.2561,22.3074,
21.0256,10.2566,-8.2053,14.8718,-4.1028,32.8206,-46.6667,3.5896,-14.3591,-11.282,-16.4104,-3.5896,18.4617,19.4871,
17.949,1.0256,-1.5383,9.7439,-6.6667,23.5901,-48.718,2.0515,-14.8718,-22.051,-15.8972,-1.0256,16.4104,9.7439,
23.0771,4.1025,-5.1279,7.1797,-2.564,18.9746,-52.3076,-2.0513,-13.333,-23.0767,-15.8975,2.0513,18.9746,8.7183,
22.8208,13.0771,-2.3076,-7.8203,-4.8716,25.3848,-50,2.3076,-13.0767,-14.1025,-17.1792,2.8208,19.7437,13.5898,
21.5386,16.4102,-6.6665,7.1797,-9.7437,31.7949,-53.8462,4.1025,-19.4873,-13.8462,-26.1538,-4.1025,10.2563,12.3076,
17.1797,7.436,-5.3848,22.1797,-15.1279,21.2822,-49.4873,3.3335,-16.1538,-15.1279,-18.2051,-3.3335,7.436,12.0513,
10.2563,2.0513,-0.5127,7.1797,-13.3335,11.7949,-49.7437,2.0513,-16.4102,-18.4614,-16.4102,0.5127,9.231,9.231,
9.2305,3.5898,-0.5127,22.1797,-16.4102,8.7178,-54.3589,0.5127,-23.0771,-21.5386,-29.231,-1.0259,3.0767,2.0513,
7.436,-0.25635,2.8208,37.1797,-27.9487,-0.76904,-48.9741,1.2822,-16.1538,-17.6924,-21.7949,2.8208,0.76953,0.25635,
2.8208,-0.25635,0.25635,52.1797,-31.0254,-0.76904,-52.564,2.3076,-14.6152,-18.2051,-16.6665,4.3589,6.9233,4.8721,
-2.5642,2.5642,8.718,37.1797,-34.3591,5.6409,-50.2563,6.6667,-9.2307,-15.3845,-12.3079,10.2566,13.3333,7.1794,
-2.0513,2.0513,10.2568,22.1797,-32.3076,7.6924,-44.6152,10.2568,-4.1025,-9.2305,-6.6665,20,14.8721,9.231,
-2.8206,-2.8206,2.8206,37.1797,-31.5383,5.8977,-51.5383,9.4871,-13.0769,-11.5383,-13.0769,14.6155,13.0769,12.0515,
-2.564,-4.1025,16.4102,22.1797,-39.4871,2.564,-47.6921,13.8462,-5.6411,-9.7437,-4.6152,14.8721,15.8975,12.8208,
-2.0513,-4.6152,12.3076,7.1797,-39.4873,0.5127,-47.6924,9.7437,1.0254,-9.7437,-0.5127,16.4102,14.3589,6.1538,
-1.5386,-10.2563,4.1025,22.1797,-32.8203,1.5386,-50.7693,5.1284,-3.5898,-12.3076,-3.5898,13.8462,11.7949,7.1797,
4.6155,-12.8206,-1.0256,9.2307,-31.282,1.0256,-59.4873,1.0256,-10.2566,-19.4875,-11.282,4.6155,6.1536,4.1023,
18.2051,0.76904,-1.2822,20.769,-19.7437,10.5127,-58.2051,3.3335,-4.8721,-12.0513,-12.0513,-0.76904,11.0254,6.4102,
6.4106,-2.3076,0.76953,18.7183,-26.4102,4.8721,-55.1279,0.25635,-7.4355,-7.4355,-13.5894,-0.25635,11.0259,5.8975,
6.9231,2.3079,-3.8459,14.1023,-24.3591,6.4104,-59.7434,-1.282,-13.0769,-12.5642,-18.2053,1.282,7.9485,8.4617,
15.3848,7.6924,-4.6152,14.3589,-20.5127,9.7437,-60.5127,2.564,-12.3076,-18.4614,-12.8203,-2.564,9.231,8.7178,
6.9229,-0.76904,0.76904,15.6411,-27.436,2.8203,-58.2051,3.8462,-15.1284,-18.2051,-12.564,-1.2822,7.9487,1.7949,
2.8206,-0.76929,-5.3845,16.1541,-23.3333,3.3337,-60.769,0.76929,-19.7434,-16.6663,-22.3074,1.7952,4.8718,1.7952,
1.0256,0.51294,-3.5896,11.7952,-32.3074,-0.51294,-56.9231,3.0769,-14.3586,-12.8206,-13.3333,5.6414,8.2053,9.2307,
4.1023,-1.5383,1.0256,17.4358,-38.4617,-1.0256,-56.4104,7.6921,-14.3591,-14.3591,-7.1794,5.1282,14.3591,11.282,
3.8464,-3.3333,-0.76929,17.6926,-34.1023,0.76929,-60.2563,5.8977,-18.718,-19.2307,-15.1282,4.8718,14.6155,4.8718,
0.5127,0,-9.7437,10.769,-30.2563,4.1025,-67.1794,0,-17.9487,-18.4614,-23.0771,6.1538,7.6924,3.0771,
15.5127,15,-16.9229,12.8203,-15.2563,19.1025,-68.7178,2.0513,-14.3589,-9.231,-22.564,-2.564,13.8462,18.0771,
24.6155,15.3845,-23.0769,3.5896,-0.25635,33.3333,-67.1794,-3.5896,-21.5383,-16.9231,-24.6155,-17.564,16.9231,15.3845,
18.9744,10.2566,-27.1794,2.5642,6.1541,26.6667,-69.2307,-2.5642,-23.0769,-25.6409,-28.2048,-24.1023,11.7952,6.6667,
17.949,15.8977,-29.7434,3.5896,5.1282,33.3333,-75.3845,-3.5896,-19.9998,-24.6155,-29.2307,-26.1536,5.6409,11.7952,
26.4104,21.7947,-23.8459,4.3591,10.0002,44.3591,-68.9744,-4.3591,-17.6921,-16.1541,-25.3845,-21.7947,14.6155,21.7947,
32.5645,17.1797,-23.333,4.3589,11.5386,39.231,-67.9487,-4.3589,-22.3076,-15.1279,-32.564,-22.8203,17.1797,21.2822,
21.5383,6.1536,-11.7947,7.6921,-3.4614,26.6667,-62.5642,4.6155,-13.3333,-12.3079,-22.0515,-14.8718,11.7947,19.4871,
13.5896,2.8206,-5.3845,9.9998,-11.5383,23.8459,-62.3079,6.9231,-10.0002,-11.5383,-11.0256,-2.8206,12.5642,17.1794,
19.2307,7.9485,-10.0002,8.9744,-6.9231,24.3586,-64.3591,2.8206,-12.5642,-9.4875,-15.1282,-2.8206,15.6409,16.6667,
19.4871,6.6667,-13.8464,7.1794,-7.1794,18.9744,-63.0769,5.1282,-12.3079,-8.2053,-18.4617,-5.1282,11.282,13.3333,
22.8203,7.436,-25.3848,-0.25635,0.25635,24.3589,-72.0513,2.8203,-19.231,-14.6152,-23.3335,-11.0259,6.4102,14.6152,
32.5642,15.6409,-22.3079,-1.282,13.5896,39.2307,-67.949,1.282,-13.0769,-11.0256,-16.1541,-10.5129,11.0256,27.9485,
39.7437,23.3335,-24.8716,2.3076,25.8975,46.9229,-65.8975,-2.3076,-10,-7.436,-21.7949,-14.1025,6.4102,29.4873,
44.8718,27.4358,-32.0515,3.8459,27.9485,50.5129,-72.5642,-0.76929,-16.6667,-7.4358,-28.9744,-20.7693,0.76929,23.3333,
40,27.6924,-28.7178,2.0513,23.5898,49.7437,-70.769,4.6157,-16.4102,-4.1025,-22.564,-17.4355,-2.0513,23.0771,
43.5898,40,-34.8716,2.564,38.5898,62.564,-70.2563,4.6152,-14.3589,-2.564,-25.1284,-19.4873,-4.6152,29.7437,
44.8718,42.8206,-33.0769,2.8206,38.718,67.4358,-67.9485,5.8977,-11.5383,-2.8206,-24.3591,-22.3079,-2.8206,32.5642,
37.436,31.7949,-25.1284,1.5386,23.718,59.4873,-68.7178,7.6924,-9.7437,-1.5386,-23.5898,-18.9746,-4.1025,31.7949,
41.5386,34.3589,-31.2822,0.5127,26.6665,65.6411,-73.8462,4.6152,-13.8462,-0.5127,-30.2563,-24.1025,-5.1284,33.8462,
54.1025,40.769,-32.0513,0.25635,41.2817,73.0767,-72.5645,0.76904,-13.0771,-0.25635,-28.4614,-28.4614,-2.3076,36.6665,
62.5642,41.5388,-35.8972,1.0256,47.6926,73.3337,-76.4099,1.0256,-12.3074,-3.0769,-28.2048,-32.8201,-1.0256,38.4617,
59.7434,35.6409,-35.6414,-1.282,41.282,65.8972,-73.0769,1.282,-13.0769,-4.3591,-25.3845,-35.6414,4.3586,37.1794,
62.3079,35.1282,-30.0002,-0.76929,44.3591,66.4104,-65.3845,0.25659,-11.5383,-0.25659,-19.7434,-26.9231,15.6409,37.1794,
66.9229,41.7949,-32.0513,-0.25635,55.6411,74.1025,-71.5386,-0.76953,-13.0771,0.25635,-20.2563,-26.4102,14.6152,42.3076,
61.7947,38.2053,-29.4871,-1.7947,50.5129,65.8972,-71.0256,1.7947,-13.0769,-2.3079,-19.2307,-31.5383,4.8718,40.7693,
65.3845,41.7947,-34.1023,-2.3079,55.1282,65.3845,-72.051,2.3079,-15.6409,-6.4104,-25.8972,-37.1794,3.8459,33.0769,
69.231,55.3848,-37.436,-0.5127,61.0254,80.3845,-71.7949,0.5127,-13.8462,-7.1797,-27.1797,-38.4614,9.7437,35.8975,
60.7693,57.1794,-36.6667,-1.282,50.5129,83.3333,-71.5383,1.282,-10.5129,-7.9485,-23.3333,-39.2307,6.9231,40.2566,
52.564,58.7178,-41.2822,-4.3589,49.4873,79.7437,-76.6665,6.4102,-16.6665,-10,-27.9487,-39.7437,4.3589,39.7437,
45.1279,60,-40.5132,-4.1025,44.6152,78.4614,-78.4614,6.6665,-21.5386,-12.3076,-28.7183,-41.5386,4.1025,33.333,
46.4104,63.3333,-39.7434,0.76929,42.3079,83.3333,-79.2307,-0.76929,-19.2307,-13.5896,-27.949,-43.8464,4.8718,33.5896,
45.1282,61.5383,-34.3591,-0.51294,39.4871,81.0256,-73.3333,0.51294,-12.8206,-10.2566,-23.5896,-36.9231,10.2566,39.9998,
34.8721,46.5383,-34.3589,-5.6411,25.1284,67.6924,-74.8716,5.6411,-17.9487,-12.8203,-24.1025,-35.3848,6.1538,30.7695,
37.4358,45.6414,-41.0256,-2.5642,27.1794,69.7439,-81.5383,4.6155,-22.051,-12.8206,-30.7693,-43.0769,2.5642,26.6667,
33.8459,48.2048,-30.2566,-1.5383,20.5129,68.718,-71.282,1.5383,-9.2307,-6.6667,-21.5383,-31.7952,9.2307,32.8206,
22.8206,44.3591,-25.8972,-2.8206,6.4104,60.7693,-64.8718,2.8206,-5.3845,-4.8718,-14.615,-19.7434,13.0769,34.1028,
18.4617,39.9998,-35.3845,-1.5383,1.5383,55.8972,-71.7952,4.1023,-15.8977,-5.6414,-21.0256,-27.6926,7.6921,30.2561,
21.0256,37.4358,-34.8718,1.5383,2.0515,52.8206,-75.3845,-1.5383,-21.0256,-9.7434,-27.6921,-33.3333,2.0515,28.2053,
31.5386,44.8721,-33.5898,4.3589,9.4873,61.7949,-73.0767,-4.3589,-18.7178,-17.6924,-30.5127,-35.1279,7.436,29.4873,
28.718,42.5642,-29.7434,1.0256,-1.0256,60.0002,-70.2561,3.5901,-11.282,-14.8718,-21.0256,-32.3074,13.3337,28.2053,
26.6665,40.5127,-26.1538,3.5898,-3.5898,56.9229,-68.7178,8.2051,-7.6924,-4.6152,-15.8975,-23.5898,15.8975,30.2563,
29.7437,38.9746,-27.6924,3.5898,1.5386,59.4873,-66.1538,-1.5386,-13.8462,-7.6924,-24.6152,-30.2563,13.3335,28.7178,
30,39.2305,-28.9746,2.3076,0.25635,61.7949,-63.3335,-0.25635,-13.0771,-13.0771,-21.7949,-30.5132,19.2305,27.9487,
31.5383,44.8718,-35.6414,0.76929,-0.76929,64.3586,-67.949,4.3586,-12.5642,-10.5129,-21.282,-27.949,22.8206,27.9485,
33.0769,40.7693,-23.3333,2.3079,-2.8206,58.718,-62.3079,2.8206,-5.8972,-2.3079,-18.2048,-25.8972,21.7952,25.8977,
27.9487,34.1025,-20.769,-0.25635,3.8462,52.564,-64.3589,0.25635,-4.3589,-4.3589,-20.2563,-25.3848,24.8716,23.8462,
24.1025,42.5645,-29.2305,-2.0513,8.2051,58.9746,-69.7437,2.0513,-5.6406,-7.1792,-23.5894,-27.1792,32.8208,30.7695,
21.5386,40,-21.0259,2.0513,-4.1025,56.9229,-64.1025,2.564,-2.0513,-8.2051,-18.4614,-28.2051,32.3076,30.2563,
31.5386,39.7437,-19.7437,7.436,-4.3589,61.2822,-65.3848,4.3589,-5.3848,-11.5386,-21.7949,-28.9746,28.9741,25.8975,
39.7434,51.5383,-24.3591,6.4104,-6.4104,65.3845,-65.3845,11.0256,-10.0002,-8.9744,-23.3333,-26.4104,30.5129,29.9998,
38.9744,54.3591,-29.7434,4.6155,-4.6155,65.1282,-67.6921,10.2566,-12.8206,-10.7693,-25.6409,-27.6921,25.6409,36.9231,
38.4617,47.6921,-31.7947,3.0769,0.51294,63.0769,-73.3333,-0.51294,-13.3333,-19.4871,-29.2307,-31.7947,21.5383,31.7947,
34.6152,47.436,-16.7947,7.436,-12.564,56.1538,-61.7949,3.3335,-3.3335,-12.0513,-16.6665,-24.8716,30,26.4102,
26.1541,45.6414,-18.4617,8.2053,-15.8972,50.2566,-66.6667,5.1282,-5.1282,-11.282,-19.4871,-26.6667,28.718,26.6667,
23.5898,38.9741,-22.0513,9.231,-6.1538,49.231,-71.2822,6.1538,-6.1538,-14.3589,-21.0259,-25.6411,29.7437,31.2822,
26.1538,38.4614,-17.436,9.7437,-11.2822,50.2563,-66.6665,5.6411,-5.6411,-8.7178,-17.9487,-22.0513,37.436,27.6924,
28.9744,42.3079,-20.7693,7.4358,-15.1282,54.6155,-71.0256,4.3591,-6.9231,-4.3591,-19.2307,-28.4617,39.2307,27.4358,
20.2561,31.0256,-15.6414,6.4104,-20.2566,43.8459,-70.5129,4.8718,-4.8718,-10.5129,-16.1541,-27.4358,35.1282,25.8972,
22.3074,30.5129,-12.0515,12.051,-20.2566,40.7693,-66.9231,4.8718,-4.8718,-12.0515,-17.6926,-21.282,33.0769,17.1794,
28.4614,33.0767,-15.6411,10.5127,-28.9746,43.8462,-65.3848,5.8975,-5.8975,-10,-19.231,-24.8721,26.9229,15.1279,
31.0259,35.6411,-16.6665,7.9487,-31.5386,45.8975,-66.4102,10,-7.9487,-12.0513,-22.3076,-22.8203,20.2563,21.7949,
38.2051,47.436,-16.6665,10,-16.5386,58.2051,-69.4868,13.5898,-10,-10,-26.9229,-22.8203,22.8208,31.5386,
29.9998,39.7434,-13.5901,7.9485,-10.5129,48.4612,-67.949,6.9231,-6.9231,-8.9744,-17.6926,-27.4363,25.8972,28.9744,
30.5129,39.2307,-14.1023,10.0002,-15.1282,42.8206,-63.8459,2.8206,-2.8206,-8.9744,-11.0256,-21.7947,32.5642,22.3079,
33.0767,44.3589,-17.1797,5.8975,-17.1797,50.5127,-61.2822,5.3848,-5.3848,-11.5386,-16.6665,-23.8462,35.1279,18.7178,
27.4358,41.282,-14.1028,4.8718,-8.9744,48.9744,-60.7693,9.9998,-4.8718,-10.5129,-15.6409,-27.4358,35.1282,21.7947,
23.3335,40.769,-21.2822,8.4614,-5.3848,45.8975,-70.5127,5.3848,-6.9233,-12.564,-24.3589,-30.5127,29.4873,21.7949,
26.6667,44.1028,-19.9998,10.2566,-20.3848,51.282,-67.6921,4.1028,-4.1028,-13.3333,-24.6155,-27.6921,26.6667,22.0515,
36.6667,41.7952,-21.282,10.0002,-20.7693,53.0769,-65.8972,4.8718,-4.8718,-13.5896,-22.3079,-29.9998,27.949,21.282,
37.6921,37.1794,-20.7693,9.9998,-14.1028,45.3845,-66.4104,2.8206,-2.8206,-10.5129,-20.2566,-31.0256,31.5383,22.8206,
27.436,36.1538,-21.7949,5.8975,-22.8203,42.8208,-66.4102,1.7949,-1.7949,-13.0767,-22.8203,-29.4873,24.8721,20.2563,
31.282,47.1794,-26.6667,6.6667,-13.8459,55.8977,-64.615,9.7439,-6.6667,-18.4612,-29.2307,-31.7947,23.0769,19.4875,
31.2822,45.1284,-23.0771,9.231,-9.231,47.6924,-62.0513,11.2822,-10.769,-20.5127,-26.1538,-34.8716,30.2563,13.3335,
32.3076,41.0259,-25.1279,10.2563,-2.564,44.6152,-65.1279,2.564,-12.3076,-19.4873,-26.6665,-40,36.4102,15.8975,
30.769,41.5381,-29.231,6.1538,0,57.4355,-64.6157,0,-10.2568,-16.4106,-27.1797,-42.5645,37.4355,25.6406,
19.9998,34.3591,-16.9231,7.1794,-13.8459,52.3079,-58.9744,8.2053,-7.1794,-14.3591,-21.5383,-32.8206,32.3079,19.9998,
25.1282,34.8718,-16.4104,11.7947,-8.2053,46.6667,-58.4617,8.2053,-8.718,-14.3591,-23.0769,-31.7947,33.3333,14.8718,
22.5645,33.8462,-16.9229,8.7183,-11.2817,42.5645,-53.333,2.0513,-2.0513,-6.6665,-16.9229,-30.769,41.5386,20.5132,
7.5645,22.051,-15.3845,3.5896,-26.2817,28.2048,-57.949,2.5642,-2.5642,-7.6926,-16.4104,-25.1282,34.8718,13.3333,
5.3848,21.2822,-10,6.9229,-33.5898,21.7949,-56.1538,7.436,-5.3848,-12.0513,-16.1538,-22.8208,28.9741,11.0254,
5.6409,14.3591,-3.5896,6.6667,-30.7693,13.3333,-48.2053,1.5383,-1.5383,-11.282,-12.3079,-19.4871,28.2053,8.2053,
-0.76904,11.0259,-7.436,5.8975,-41.2822,10.5127,-52.564,4.8716,0.76904,-12.564,-13.0771,-16.1538,28.4614,2.3076,
-2.564,15.3848,-5.1284,8.2051,-49.231,10.2563,-53.3335,12.8203,2.564,-14.8721,-10.2563,-16.9233,29.231,3.0767,
1.5383,14.8718,-3.5896,11.282,-42.5642,9.2307,-53.3333,5.1282,-1.5383,-12.8206,-14.8718,-18.4617,26.6667,6.6667,
1.7947,18.2053,-3.3333,16.1541,-38.718,14.6155,-57.1794,8.9744,-1.7947,-5.8972,-15.1282,-13.5896,28.4617,12.5642,
-13.2053,11.7952,-1.0256,10.2566,-53.718,5.6414,-59.4871,15.385,1.0256,-8.718,-10.2561,-11.282,29.2307,6.1541,
-10.2563,15.8975,-2.564,15.3848,-50.769,4.1025,-57.436,13.3335,2.564,-11.2822,-11.2822,-10.769,30.769,5.6411,
2.0513,13.3335,-2.564,18.4614,-47.1797,3.5898,-53.3335,6.6665,-2.0513,-12.8208,-12.3076,-13.3335,25.1279,8.2051,
0.25659,8.9744,-0.25659,17.1794,-52.5642,5.3845,-48.4617,9.4871,-0.25659,-8.9744,-9.4871,-11.5383,24.8718,8.9744,
-2.0513,11.2822,-6.1538,16.4102,-45.1279,11.7949,-55.8975,13.8462,2.0513,-9.2305,-13.8462,-15.8975,26.6665,9.7437,
-1.282,10.5129,-5.3845,17.6926,-41.282,7.949,-53.5896,13.5901,1.282,-15.6409,-10.5129,-15.1282,27.4358,9.4871,
3.5898,17.9487,-11.2822,15.3848,-31.2822,7.6924,-48.7178,6.1538,-3.5898,-18.9746,-12.3076,-17.9487,31.2822,11.7949,
2.3079,24.8718,-13.5896,8.9744,-22.3079,12.051,-51.0256,4.3591,-2.3079,-17.6921,-16.6667,-24.8718,36.6667,16.1536,
2.564,22.564,-10.2563,9.7437,-22.564,18.4614,-57.9487,12.3076,-2.564,-20,-16.4102,-26.6665,37.9487,15.3848,
13.0767,26.9229,-18.2051,10.5127,-19.231,30.5127,-61.7949,13.5898,-10.5127,-18.7183,-18.7183,-28.9746,38.7178,16.6665,
11.7949,26.6665,-18.9746,6.1538,-21.5386,29.2305,-53.8462,12.8203,-6.1538,-10.2563,-15.8975,-25.1284,38.4614,17.436,
5.8975,23.3335,-22.3076,4.8716,-21.7949,23.3335,-61.2822,9.4873,-4.8716,-13.5898,-22.3076,-25.3848,33.5898,12.0513,
12.564,24.8716,-20.769,5.8975,-20.769,24.8716,-60.2563,7.9487,-5.8975,-12.564,-18.7178,-25.8975,37.6924,16.6665,
16.4102,27.1797,-13.3335,5.1284,-24.6152,27.6924,-50.769,10.2563,-5.1284,-7.1797,-9.7437,-22.564,41.0259,25.1284,
16.4102,32.3076,-22.0513,5.6411,-16.4102,36.4102,-57.9487,11.2822,-5.6411,-10.2563,-15.8975,-24.1025,40,24.6152,
10.7693,32.8206,-27.6921,4.6155,-16.4104,33.8459,-62.0515,11.282,-4.6155,-14.3591,-20.0002,-29.2307,34.3591,16.4104,
20.2563,38.7178,-24.3589,6.4102,-6.9229,38.2051,-59.231,12.564,-6.4102,-11.0254,-17.1792,-32.0513,35.6411,21.2822,
27.6921,36.4104,-22.5642,4.6155,-4.6155,44.1028,-58.4617,10.2566,-8.718,-9.7434,-18.4617,-35.8972,41.5383,27.6921,
21.282,31.0256,-20.7693,4.8718,-12.5642,40.7693,-56.1541,12.5642,-4.8718,-8.9744,-22.3079,-33.5896,42.3079,27.9485,
19.2307,39.2307,-30.5129,3.8459,-3.8459,38.2053,-65.3845,10.5129,-13.5896,-16.1541,-31.5383,-40.7693,35.1282,25.8972,
17.4358,37.4358,-30.7693,-1.0256,1.0256,33.8464,-70.2561,4.1028,-17.9485,-24.6155,-28.2048,-45.1282,35.3845,20.0002,
24.8718,33.5901,-31.0256,-1.282,12.0515,37.6926,-66.9231,1.282,-11.5383,-22.8206,-25.3845,-43.3333,41.282,17.1794,
31.7952,35.3845,-33.3333,-1.0256,14.8718,36.9231,-63.5896,1.0256,-10.7693,-17.4358,-26.6667,-47.1794,42.5642,20.0002,
22.3076,33.0771,-28.9741,-0.25635,0.25635,29.4873,-63.3335,2.8203,-13.5898,-18.2051,-24.3589,-44.8716,42.8203,20.769,
21.0254,36.9229,-34.8721,0,3.5898,36.4102,-70.2563,0,-16.9233,-23.5898,-32.8208,-53.8462,40.5127,18.9741,
24.6157,43.0771,-32.8203,2.0513,5.6411,38.4614,-64.1025,-2.0513,-13.8462,-21.0254,-31.2817,-58.4614,38.4614,15.8975,
23.3335,39.231,-32.564,2.3076,3.8462,31.5386,-64.3589,-2.3076,-17.1792,-18.7178,-29.4868,-48.9741,36.1538,13.0771,
30.7693,42.051,-36.4104,-1.0256,12.8206,41.0256,-68.2053,1.0256,-14.8718,-16.9231,-30.7693,-46.1541,40.5129,25.1282,
37.949,50.2566,-29.2307,-1.0256,16.9231,50.7693,-61.5383,1.0256,-4.6155,-10.7693,-26.6667,-48.2048,46.1541,31.7952,
42.0513,58.9741,-33.3335,0,23.0767,56.4102,-65.1284,0,-8.7183,-10.2563,-30.7695,-54.3589,46.6665,24.6152,
35.3845,57.9485,-37.949,-3.0769,16.9231,58.4612,-70.2566,3.0769,-15.385,-15.385,-31.2825,-57.949,43.0769,27.6921,
33.0769,55.6409,-34.6155,-2.8206,11.5383,60.7693,-70.5129,2.8206,-14.1028,-16.1541,-32.0515,-56.6667,38.2048,35.1282,
44.6155,62.0515,-39.9998,-3.0769,24.1028,64.6155,-68.2048,3.0769,-11.7947,-11.7947,-37.9485,-58.9744,38.9744,32.3079,
44.615,58.9744,-43.0769,-5.1282,18.9744,58.4612,-66.1541,5.1282,-10.7693,-8.718,-36.4104,-55.385,41.0256,25.1282,
44.3589,58.7178,-46.9229,-1.2822,14.1025,59.231,-73.5898,1.2822,-15.6411,-13.5898,-41.7949,-54.6152,42.3076,26.9233,
48.2051,64.1025,-43.0767,0.5127,23.0771,66.667,-69.2305,-0.5127,-14.8716,-16.9229,-41.0254,-60.5127,45.1284,28.2051,
44.6155,67.6921,-40.0002,-1.5383,24.1023,61.0256,-64.6155,1.5383,-13.3333,-20.5129,-34.8718,-65.6409,39.4871,20.5129,
45.6411,77.9487,-46.1538,0,19.4873,61.5386,-75.8975,0,-21.5386,-24.6152,-42.0513,-67.1792,32.3076,17.9487,
45.8977,81.282,-42.3074,0.76929,9.4875,67.949,-77.6921,-0.76929,-24.3586,-29.4871,-44.8718,-67.9485,27.4363,16.1541,
49.7439,85.1282,-39.4871,0.51294,14.3591,71.282,-74.3591,-0.51294,-26.6667,-36.4104,-44.6155,-71.7947,21.5383,12.3079,
50.2566,87.1794,-33.8459,2.5642,14.3591,62.5642,-70.7693,-2.5642,-26.6667,-33.3333,-39.9998,-67.6921,23.0769,8.718,
47.6924,84.6152,-32.3076,4.1025,4.1025,52.8203,-70.7695,-4.1025,-21.0259,-25.6411,-37.436,-61.5386,26.6665,4.1025,
52.051,88.4612,-39.7439,2.8206,6.4099,60.7693,-73.5901,-2.8206,-22.3079,-28.4617,-45.385,-66.9231,24.8718,7.4358,
44.1025,85.1284,-33.8462,1.0259,7.1797,58.9741,-67.6924,-1.0259,-25.1284,-30.769,-42.564,-64.1025,24.6152,14.8716,
37.1792,80.769,-33.5898,2.3076,6.9229,51.0254,-67.436,-2.3076,-21.7949,-25.8975,-36.1538,-57.6924,27.9487,17.6924,
39.7437,73.5898,-30,3.8462,-0.76904,46.9229,-63.3335,0.76904,-12.564,-19.231,-30,-59.7437,34.1025,18.7178,
38.9746,59.4873,-24.1025,2.0513,-2.0513,44.1025,-60.5127,7.1797,-10.769,-16.9229,-27.6924,-57.9487,39.4873,18.4614,
36.9231,57.949,-32.3074,1.0256,-1.0256,48.2053,-67.6921,4.6155,-12.3074,-14.8713,-31.7947,-53.3333,38.9744,22.5642,
35.1284,61.7949,-27.436,7.9487,-12.0513,45.8975,-63.3335,2.8203,-2.8203,-6.9229,-19.7437,-45.3848,37.1797,28.9741,
36.9231,60.5129,-26.6663,10.2566,-6.6663,46.6667,-63.0769,5.1282,-5.1282,-7.6921,-22.5637,-48.7175,37.4363,25.6414,
37.4355,55.8975,-30.2563,5.6411,-5.6411,46.1538,-64.6157,9.2305,-11.2822,-11.7949,-34.3589,-55.8975,34.3589,18.9741,
32.8206,51.7947,-19.9998,8.718,-20.6411,35.8977,-57.4358,10.7693,-8.718,-14.8718,-27.1794,-51.7947,31.7947,18.9744,
28.2051,51.7949,-14.8716,13.3335,-21.0254,34.3589,-58.4614,7.1797,-7.1797,-17.436,-18.4614,-50.2563,36.9229,23.0771,
14.1025,36.7949,-15.6411,5.3848,-30.5127,25.3848,-59.231,3.8462,-3.8462,-15.1279,-15.1279,-50.5127,33.0771,19.231,
8.718,28.2048,-18.9744,3.0769,-36.4104,23.0769,-56.4104,5.6409,-3.0769,-9.7439,-17.949,-45.1282,29.2307,17.4358,
13.0771,33.5898,-21.2817,7.436,-21.4104,29.4873,-57.6924,5.3848,-5.3848,-10,-16.6665,-46.4102,40.2563,21.2822,
10.2561,33.3333,-22.5642,6.6667,-15.8977,25.6409,-60.5129,3.0769,-3.0769,-10.2566,-14.8718,-47.1794,47.1794,21.5383,
10.2566,32.8206,-30.2566,7.1794,-14.8718,27.6921,-64.6155,4.6155,-4.6155,-8.2048,-23.5896,-48.718,41.5383,23.0769,
7.4358,32.051,-25.3845,6.9231,-16.1541,31.5383,-61.282,7.4358,-6.9231,-7.4363,-21.282,-50.5129,36.6667,22.3074,
13.3335,37.9487,-20.5127,8.2051,-11.2822,34.8716,-60.5127,6.6665,-6.6665,-9.231,-18.4614,-48.2051,36.9233,22.564,
22.3079,40.2566,-27.4358,6.9231,-3.8459,38.2053,-64.8718,3.8459,-9.9998,-15.6409,-23.3333,-53.5896,34.6155,25.8972,
21.5383,33.3333,-27.1794,3.5896,-3.5896,35.3845,-63.0769,4.6155,-11.7947,-19.4871,-23.0769,-57.949,34.3591,19.9998,
23.8462,37.1797,-31.0254,0.25635,-0.25635,36.1538,-67.9487,3.3335,-15.6411,-19.231,-26.9229,-59.7437,33.0771,13.5898,
23.5896,42.5637,-25.6414,5.1282,-5.1282,33.8459,-63.5901,6.1536,-10.7693,-16.4104,-19.4875,-56.4104,35.8972,21.5383,
20.7693,39.7439,-24.3591,11.0256,-11.0256,28.4617,-60.2561,8.4617,-8.4617,-18.2048,-17.6921,-53.5896,39.2307,24.3591,
24.1028,42.5642,-29.2307,8.718,-9.7434,35.8977,-61.0256,10.2566,-8.718,-15.3845,-21.5383,-51.282,40.5129,22.0515,
21.5386,38.9746,-24.1025,6.6665,-17.436,30.2563,-58.4614,12.8203,-6.6665,-9.7437,-16.4102,-48.2051,36.9229,22.0513,
24.3591,38.2053,-28.9744,7.9485,-7.9485,26.4104,-64.3591,8.4617,-8.9744,-11.0256,-22.3079,-54.6155,36.6667,21.282,
23.5898,38.4614,-33.8462,5.1284,-4.1025,28.2051,-66.6665,4.1025,-8.2051,-9.7437,-25.1279,-57.436,38.4614,17.436,
19.7437,34.6152,-31.0259,4.8716,-19.1025,23.3335,-64.8716,7.436,-4.8716,-8.9746,-17.1797,-53.0771,34.1025,16.6665,
21.7947,35.1282,-32.0515,5.3845,-25.8977,20.7693,-67.4358,7.9485,-5.3845,-14.1028,-13.0769,-52.5642,32.051,19.2307,
17.4358,32.8206,-30.7693,4.6155,-30.7693,11.7947,-66.1541,7.1794,-4.6155,-13.3333,-11.7952,-49.2307,31.7947,16.4099,
19.4875,36.4104,-34.3586,6.6667,-28.718,12.3079,-64.6155,9.2307,-6.6667,-12.3074,-17.9485,-51.7947,27.6926,17.4363,
24.3591,35.6414,-32.051,8.9744,-20.7693,18.718,-60.7693,10.5129,-8.9744,-14.6155,-17.1794,-56.6667,30.5129,19.2307,
24.6155,31.282,-25.6414,11.282,-8.718,21.0256,-58.9744,8.718,-10.2566,-12.3079,-13.3333,-53.3333,38.4617,19.4871,
21.5386,31.2822,-36.9229,4.1025,-2.564,22.0513,-66.1538,2.564,-10.769,-11.2817,-22.564,-60.5127,35.8975,22.564,
13.0769,24.3591,-37.6921,-1.282,-15.1282,17.1794,-57.6921,5.3845,1.282,-7.9485,-15.1282,-57.1794,35.6414,22.8206,
7.9485,16.1536,-36.1541,2.8206,-19.7439,11.5383,-55.1282,6.9231,-2.8206,-12.5642,-12.5642,-52.5642,37.1794,17.6921,
16.1538,21.2822,-30,10,-11.5386,18.7178,-57.6924,10.5127,-10,-14.6152,-13.0771,-55.6411,38.7178,20.2563,
17.949,24.6155,-31.7947,5.1282,-12.8206,26.1541,-61.0256,8.2053,-5.1282,-15.8972,-13.8459,-53.8459,35.8977,15.8977,
20.5129,29.2307,-39.4871,2.5642,-9.7434,31.7947,-63.0769,5.6409,-2.5642,-14.8718,-15.8977,-49.7434,36.4104,16.9231,
18.2053,24.3591,-28.9744,5.3845,-16.1536,21.282,-57.6921,8.9744,-5.3845,-12.051,-11.5383,-51.0256,38.2053,22.8206,
18.9741,22.0513,-24.6152,6.6665,-17.436,11.7949,-60,6.6665,-6.6665,-11.7949,-14.3589,-54.3589,34.3589,14.3589,
22.8203,27.436,-27.436,5.3848,-14.6152,8.4614,-59.7437,3.3335,-3.3335,-11.5386,-15.6411,-53.5898,28.9741,3.3335,
19.7434,24.3586,-22.3079,6.9231,-24.3591,3.3333,-55.1282,7.9485,-3.3333,-11.5383,-10.5129,-48.9744,22.8206,6.9231,
23.333,24.3589,-8.9746,13.5898,-25.3848,5.8975,-59.231,13.0767,-5.8975,-11.5386,-10,-47.436,25.3843,16.6665,
16.9233,14.8721,4.6152,9.231,-30.2563,-6.1538,-59.4873,6.1538,-4.6152,-12.3076,-10.2563,-48.2051,28.7183,7.1797,
15.6411,12.564,2.8203,8.9746,-21.2822,-5.3848,-56.1538,4.3589,-2.8203,-10.5127,-11.0254,-46.9229,31.0259,3.8462,
17.9487,16.9229,-6.6665,9.7437,-21.5386,7.6924,-60,6.6665,-8.7178,-14.8716,-18.4614,-52.8203,28.2051,10.2563,
14.8721,13.3335,-3.5898,6.667,-28.7178,6.1538,-61.0254,3.5898,-12.3076,-17.4355,-19.4868,-55.3843,23.0771,8.2051,
23.0771,17.9487,-2.0513,8.7178,-13.7178,3.5898,-58.4614,2.0513,-11.7949,-13.8462,-18.4614,-51.7949,25.1284,7.1797,
20.5127,18.4614,0.5127,10.2563,-7.1792,-0.5127,-54.8716,7.6924,-9.2305,-11.2817,-13.333,-46.6665,26.667,11.2822,
11.0259,12.5645,-0.25635,8.9746,-19.7437,0.25635,-59.2305,8.9746,-11.5381,-13.5894,-11.5381,-50,24.3589,15.6411,
13.0769,12.0515,-2.8206,7.4358,-8.9744,2.8206,-60.2566,5.8977,-10.5129,-14.6155,-15.1282,-58.718,27.4358,17.1794,
12.564,9.4873,5.3848,7.9487,-10.5127,-6.4102,-51.0254,5.3848,-5.3848,-14.1025,-13.5898,-54.6152,29.4873,10.5127,
15.6411,11.5386,-1.7949,6.9229,-10.5127,1.7949,-57.1797,4.8716,-14.1025,-15.6411,-17.1797,-55.1284,27.436,4.3589,
21.7949,11.5386,-4.3589,4.3589,-7.9487,14.6152,-61.2817,5.3848,-15.1279,-14.6152,-12.0513,-59.2305,28.4614,15.6411,
22.0513,11.2817,-2.0513,4.1025,-13.8462,3.0767,-61.0259,2.0513,-8.7183,-15.3848,-12.8208,-56.9233,25.6411,22.564,
27.9487,20.769,-2.3076,8.9746,-6.4102,2.3076,-57.6924,6.4102,-3.3335,-7.436,-13.0767,-52.564,30,19.7437,
23.8462,13.0767,-3.8462,1.7949,-1.7949,7.9487,-58.7183,7.4355,-4.3594,-6.4106,-11.0259,-53.0771,31.5381,13.0767,
25.8975,12.564,-9.4873,-4.3589,5.8975,12.0513,-64.3589,4.3589,-7.9487,-9.4873,-17.6924,-56.1538,29.4873,15.6411,
26.1538,19.4868,-3.5898,2.0513,-2.0513,4.6152,-58.4619,6.6665,-2.0513,-4.103,-12.3081,-54.3594,32.8203,18.9741,
14.3586,10.2561,1.0256,7.1794,-17.0513,-7.1794,-54.8718,6.1536,-1.0256,-9.2307,-10.7693,-49.2307,35.8972,7.6921,
18.4617,12.3079,-1.0256,10.2566,-18.9744,1.0256,-53.8459,13.3337,-3.0769,-11.7947,-11.282,-44.1023,40.5129,10.7693,
15.8977,12.8206,1.0256,3.5901,-15.8972,-1.5383,-54.3586,14.3591,-1.0256,-8.7175,-4.1023,-46.6663,37.949,11.2825,
7.6921,9.2307,0.51294,4.6155,-13.3333,-7.1794,-61.0256,8.718,-0.51294,-6.1541,-5.6409,-51.282,35.8972,10.2566,
1.282,6.9231,2.8206,12.5642,-18.718,-1.282,-55.6409,11.5383,-2.3079,-2.3079,-5.3845,-44.8718,35.6409,19.7434,
-1.7949,7.436,1.7949,11.5386,-26.4102,3.3335,-55.6411,14.1025,-7.9487,-6.4102,-6.4102,-45.3848,24.3589,17.1797,
4.1025,12.8203,-4.1025,8.7178,-24.1025,6.1538,-62.5645,12.3076,-12.8208,-14.8721,-14.8721,-55.3848,18.9741,13.333,
0.25635,6.4102,-0.25635,11.5386,-26.9233,0.25635,-57.1797,12.0513,-14.6157,-16.667,-14.6157,-54.6157,18.2051,15.1279,
1.0256,6.6667,-1.0256,13.8464,-19.4871,1.5383,-54.8718,12.8206,-15.3845,-15.3845,-12.3074,-52.8206,10.7693,13.8464,
2.564,9.7437,-2.0513,8.2051,-21.0259,2.0513,-56.9233,10.2563,-15.3848,-17.9487,-13.8462,-57.436,3.5894,8.7178,
2.5642,10.2566,7.1794,14.8718,-24.6155,-2.5642,-52.8206,11.282,-11.282,-14.8718,-9.7434,-48.718,12.8206,8.2053,
4.8718,11.0256,7.4358,20.7688,-11.0256,-5.385,-52.5642,9.9998,-8.9744,-11.0256,-4.8718,-41.7952,22.8201,6.4099,
-3.333,1.7949,11.5386,15.6411,-18.2051,-13.5898,-47.9487,13.0771,-1.7949,-10,4.8721,-38.7178,25.3848,2.8208,
-4.6155,-0.51294,13.8459,17.9485,-33.2051,-10.2566,-46.6667,21.5383,0.51294,-8.2053,2.051,-34.3591,23.5896,9.2307,
-2.564,3.5898,17.436,23.5898,-33.3335,-2.0513,-47.6924,24.1025,0,-4.1025,0,-30.2563,22.0513,17.9487,
-8.7178,-2.0513,24.6152,23.0771,-35.8975,-11.2817,-42.564,24.1025,2.0513,-2.0513,9.231,-23.0767,22.0513,10.7695,
-3.5896,-1.0256,20.5129,23.5901,-37.4358,-14.3586,-43.5896,27.1799,1.0256,-2.5637,8.2053,-23.0769,24.6155,6.1541,
-7.6924,-2.5645,21.5386,22.0513,-43.0771,-16.4102,-48.2051,25.6411,1.5386,-1.5386,6.6665,-24.1025,22.0513,8.7178,
-20.769,-10,23.3335,21.2822,-45.8975,-21.7949,-47.4355,21.2822,2.3076,-2.3076,6.4106,-20.2563,17.1797,7.436,
-27.6921,-14.8718,23.0769,23.5896,-53.8462,-28.718,-40.5129,24.1028,6.1541,-3.0769,11.282,-17.4358,20.5129,3.0769,
-31.5383,-16.6667,31.5383,31.0256,-68.8462,-39.7437,-36.1538,31.0256,13.0769,-0.25659,18.718,-12.5642,23.8459,0.25659,
-28.2053,-12.3079,31.7947,36.9231,-63.0771,-40.0002,-43.0771,32.3074,9.7434,-1.0256,12.3074,-12.8206,21.0256,1.0256,
-30.769,-13.8462,33.3335,36.4102,-60,-42.564,-36.4102,29.7437,10.2563,0,13.8462,-6.6665,21.0259,0,
-40,-21.5383,34.8718,34.8718,-70.7693,-47.6924,-32.3076,29.2307,12.3079,0.51294,18.9744,-0.51294,21.5383,-3.0769,
-40.5129,-21.5386,38.4612,36.4099,-70.7693,-45.1284,-37.9487,35.8972,12.3074,1.0256,20.5129,-1.5388,24.1023,-1.0256,
-43.3333,-24.8718,43.3335,34.1025,-70,-52.564,-36.6665,34.1025,10,-1.2822,20.769,1.2822,18.2051,-3.8462,
-48.7178,-27.1792,41.0259,37.436,-69.7434,-54.3586,-33.8459,29.7437,8.7183,-2.0513,17.9487,2.0513,7.6924,-4.1025,
-61.0256,-32.8206,45.6411,42.564,-84.1025,-58.4617,-30.2566,34.3589,13.8462,1.0254,22.0513,-0.51269,0.5127,-5.1284,
-63.3333,-33.0769,43.8459,40.7693,-84.8718,-59.7437,-34.6155,35.6409,14.1028,0.76929,19.7434,2.3079,-0.76929,-8.4617,
-60.5129,-28.2051,38.9744,38.9744,-76.9231,-52.3076,-37.9487,31.282,8.718,-3.0769,15.8972,3.0769,4.6155,-3.5896,
-69.231,-35.8975,45.6411,38.9741,-86.1538,-60,-34.3591,28.7178,8.2051,-6.1538,18.9741,2.564,5.6411,-2.564,
-59.9998,-29.2305,43.0771,38.4619,-73.3333,-62.051,-35.3845,29.231,9.231,-2.0513,13.8462,2.0513,5.1284,-6.1538,
-55.3848,-26.6667,39.4873,35.8975,-73.8462,-62.0513,-34.3591,31.2822,9.7437,-0.5127,12.8203,0.5127,0.5127,-9.7437,
-58.9745,-25.641,52.3075,47.6923,-88.7179,-57.9489,-26.1539,45.1283,17.9486,2.5641,26.6669,13.3334,-5.1283,-2.5641,
-62.3077,-22.8204,52.0511,47.4359,-89.9999,-55.1281,-31.0255,43.8461,16.1537,0.25647,23.8461,14.1024,-20.1283,-0.25647,
-66.1539,-31.2821,53.8463,42.0514,-88.2052,-64.6154,-32.3077,36.4103,16.4103,2.5641,21.5382,10.7692,-32.8204,-2.5641,
-68.4617,-38.718,52.5642,48.4617,-91.5386,-69.4873,-34.1025,37.6921,18.2048,6.4104,22.3074,12.5642,-24.8718,-6.4104,
-71.282,-36.9231,54.8721,49.7437,-98.4614,-70.2563,-29.7434,40.5127,19.4873,8.2051,25.1284,18.4614,-35.3845,-8.2051,
-70.7693,-33.8462,62.0513,48.2051,-93.3335,-70.7693,-25.6411,40.5127,19.4873,5.1282,26.1538,22.0513,-50.3845,-5.1282,
-58.7179,-31.0255,56.1539,52.5641,-78.3335,-63.3334,-32.5641,39.7438,14.1027,1.2821,22.8204,18.7179,-65.3845,-1.2821,
-49.9999,-34.1024,54.1024,51.0258,-79.7435,-59.2308,-32.0511,43.8461,17.6923,2.3077,26.9232,17.6923,-80.3845,-2.3077,
-49.4873,-31.0256,49.4873,45.3848,-73.5898,-57.1794,-32.5642,41.2822,17.1792,0.25635,20.769,9.4873,-93.0769,-0.25635,
-54.3591,-30.2566,45.6411,44.1025,-70.7693,-61.0256,-32.3079,32.8203,14.8716,0.5127,19.4873,2.564,-91.2822,-0.5127,
-50,-33.0769,49.9998,47.9485,-75.1282,-61.2822,-27.9487,37.1794,22.3074,4.8718,29.9998,9.4871,-83.8462,-4.8718,
-40.769,-24.8718,45.8975,44.8721,-61.282,-46.2822,-33.0769,44.8721,22.8208,1.7949,25.8975,5.8975,-76.1538,-1.7949,
-48.718,-22.0513,46.1536,43.5896,-54.3591,-40.5129,-33.3335,42.051,17.9485,1.5383,26.1536,2.051,-77.9487,-1.5383,
-48.9744,-19.7434,40.7693,51.0256,-53.0769,-44.8716,-33.5896,37.6926,16.6667,4.3591,30.5129,2.8206,-77.6921,-2.8206,
-45.1284,-17.949,36.4102,44.1025,-59.4873,-48.2053,-37.436,37.9487,18.9741,0,26.1538,0,-76.4104,0.5127,
-51.282,-24.6152,43.0769,37.949,-66.6667,-54.3589,-38.4614,33.8459,17.949,-1.5383,23.0769,3.0769,-74.8718,1.5383,
-39.2307,-23.8462,38.2053,47.4358,-51.6667,-50,-39.2307,29.4871,13.5896,4.3591,20.7693,-0.76929,-72.0513,0.76929,
-25.8975,-18.718,39.7437,50.5127,-47.436,-44.8718,-35.1284,34.6152,19.2305,8.9741,26.9229,-3.8462,-65.3848,3.8462,
-30.2563,-15.3848,36.9229,42.0513,-54.8718,-44.1025,-39.4873,36.4102,17.9487,2.0513,22.0513,-2.0513,-64.1025,4.6152,
-33.3333,-10.7693,36.4104,43.0769,-56.9231,-42.5642,-41.5386,36.4104,16.4104,-1.0256,21.0256,1.0256,-62.5642,5.1282,
-37.949,-17.949,42.5637,46.1536,-62.5642,-47.6924,-38.9746,33.3333,18.4612,1.0256,26.1536,2.051,-58.9746,-1.0256,
-31.5383,-15.6409,37.6921,43.3333,-50,-38.718,-41.7949,33.5896,14.6155,1.282,21.7947,0.25659,-48.4614,-0.25659,
-27.6921,-12.3076,37.436,39.4873,-49.2305,-30.769,-40.5127,36.9233,16.9233,0,24.6157,0,-42.564,6.1543,
-30.769,-13.8462,38.9746,41.5386,-54.8718,-33.8459,-39.4871,36.9233,20,-1.5386,25.1284,1.5386,-46.1538,7.6924,
-32.8206,-14.3591,37.4358,42.051,-50.2563,-35.8975,-39.4873,36.9231,17.4358,0.51294,23.0769,-0.51294,-40.5129,10.2566,
-34.3589,-18.9744,36.9233,38.4614,-53.3333,-44.6152,-38.4614,33.3335,15.3848,2.0513,25.1284,-2.0513,-29.7434,7.6924,
-28.4614,-13.5894,30.5132,41.7949,-43.8459,-40.769,-44.3589,27.9487,13.5898,3.8462,21.2822,-3.8462,-25.3845,7.436,
-32.8203,-12.3074,33.3333,43.5901,-38.9744,-33.3333,-43.5896,31.7952,13.8464,5.1282,24.6155,-5.1282,-17.9487,8.718,
-38.7178,-13.5896,38.2051,43.3335,-39.7434,-31.5383,-38.7178,42.3076,15.6411,4.3589,27.9487,-4.3589,-6.4102,8.4619,
-40.769,-11.5381,31.0259,42.3081,-41.7947,-34.1023,-44.3589,37.6924,11.5386,-0.25635,19.231,-8.4614,0.25635,8.4619,
-43.0769,-11.282,28.718,40.5129,-46.6667,-37.9487,-46.1538,28.2053,6.6667,-4.6155,16.4104,-11.7947,4.6155,7.6921,
-32.5642,-4.8718,27.9485,39.7434,-40.2563,-29.4873,-49.4873,31.5383,4.8718,-7.4358,15.6409,-18.2053,10.5129,7.9485,
-32.5642,-5.3848,27.9487,37.1797,-47.436,-28.9744,-48.4617,36.6665,8.9741,-6.9233,18.7178,-18.7178,17.1797,5.3848,
-42.8206,-12.564,27.9487,34.1025,-62.3076,-37.1794,-46.9231,32.564,10,-3.3335,17.6924,-13.5898,19.7437,3.3335,
-44.1025,-17.436,25.1284,28.2051,-62.5642,-41.0256,-53.8462,24.1025,6.6665,-4.6152,14.3589,-13.8462,15.8975,4.6152,
-44.1025,-20.5129,32.3076,30.769,-61.5386,-47.6924,-48.718,26.1538,14.3589,-3.5898,25.6411,-7.1797,17.436,3.5898,
-38.2051,-14.1025,32.564,39.7437,-54.6155,-44.3589,-42.3076,30.5127,16.1538,-0.76904,28.4614,-4.3589,28.4614,0.76904,
-38.718,-16.6667,32.051,36.6667,-59.7437,-45.8975,-45.3848,29.9998,12.051,-1.282,23.8459,-8.4617,29.4871,1.282,
-45.8975,-22.8206,34.1025,33.5898,-67.436,-50.0002,-51.0259,30.5127,13.0767,-1.7949,24.3589,-4.3589,20.769,1.7949,
-41.282,-10,28.4619,38.2051,-56.6665,-42.3076,-49.4871,33.5898,16.667,-1.7949,22.3076,-2.8203,22.8208,1.7949,
-38.9746,-2.5645,30.769,37.9487,-57.436,-41.5386,-46.6667,34.3589,18.4614,-2.0513,21.5381,-2.5645,25.1279,2.0513,
-32.8206,-1.0256,23.0769,33.8459,-55.3845,-36.9231,-56.9231,28.2053,5.6409,-10.2566,12.3079,-11.7947,17.4358,1.0256,
-20.769,10,20.2563,35.1284,-42.8203,-27.4358,-55.1282,28.4614,-0.25635,-15.6411,7.9487,-22.8203,16.667,0.25635,
-15.6411,19.231,29.4873,38.2051,-37.1794,-22.3076,-47.9487,34.1025,2.3076,-15.1279,13.0771,-17.6924,21.2822,-2.3076,
-6.4104,33.5896,28.4612,40.2561,-29.4873,-8.9744,-49.4873,33.0769,2.8206,-11.5388,14.615,-13.0769,20.7688,-2.8206,
-4.6155,39.9998,29.7434,37.9485,-31.282,-10.7693,-45.6411,27.6921,4.6155,-12.3079,17.9485,-20,13.8459,-11.282,
-2.5642,45.6409,29.2307,36.9231,-26.1541,-9.7439,-46.6667,25.1282,2.5642,-15.3845,14.3586,-24.6155,9.2307,-13.8464,
-0.25659,46.9231,21.282,31.0256,-24.8718,0.25659,-54.6155,23.3333,-5.3845,-17.1794,7.9485,-29.4873,5.8972,-5.8972,
0.25635,43.8462,24.3589,31.5381,-27.436,-0.25635,-52.0515,26.9229,-1.7949,-15.6411,14.1025,-27.949,12.564,-4.3589,
-4.1025,44.6157,27.6924,36.9233,-27.6921,-6.6665,-48.2051,29.7437,4.1025,-12.8203,15.8975,-22.564,17.9487,-9.2305,
-19.1025,30.2561,33.8459,34.3586,-42.6921,-18.4617,-43.0771,28.718,9.2307,-9.2307,21.0256,-17.949,11.282,-10.7693,
-32.3076,17.949,32.8206,32.8206,-53.3333,-21.5383,-45.6409,28.718,12.3079,-6.6667,20.5129,-17.4358,6.6667,-7.6921,
-36.6667,13.5894,25.8975,30.5127,-47.436,-21.2822,-54.6155,26.4102,5.8975,-5.8975,10,-23.8464,8.4614,-11.5386,
-44.1025,3.5898,31.2822,31.2822,-54.3589,-31.282,-51.282,25.1284,4.1025,-3.5898,13.8462,-20.5129,13.3335,-14.3589,
-41.282,1.282,32.5642,35.6414,-49.4871,-31.5383,-46.9229,28.4617,10.0002,-1.282,20.2566,-15.1282,15.6414,-3.8459,
-43.3333,-1.7949,35.6411,35.1284,-53.5898,-29.4871,-41.7949,31.5386,13.0771,-0.76904,23.3335,-12.5642,14.6152,0.76904,
-39.7437,-2.3079,38.2053,37.1794,-47.9487,-21.7949,-41.7949,34.1028,10.5129,-0.25659,23.8459,-11.0256,18.2053,0.25659,
-45.1284,-5.6414,31.7947,33.8459,-46.6667,-21.0259,-47.1797,31.7947,8.718,-1.0256,21.5383,-17.436,17.9485,1.0256,
-60.1284,-14.3591,33.3333,34.3591,-61.6667,-30.7693,-42.5642,29.7434,12.8206,1.5383,23.5896,-15.8975,12.3079,-1.5383,
-58.4617,-13.8462,34.3591,41.5383,-59.4873,-26.1538,-40,31.282,13.3333,1.5383,22.051,-13.8462,15.8972,-1.5383,
-55.6411,-18.718,35.1282,33.5896,-49.4873,-28.9744,-40.7693,27.4358,12.5642,-1.282,23.8459,-16.6667,17.6921,1.282,
-61.0259,-24.1028,31.7949,27.1792,-53.3335,-41.5386,-43.5898,22.0513,11.7949,0,23.0767,-14.8721,14.3589,0,
-59.4871,-24.1025,27.1794,31.282,-50.2563,-42.0513,-45.6411,20.0002,10.7693,2.0515,19.4871,-17.9485,21.0256,-2.0515,
-63.8462,-30.5127,31.0259,29.4873,-52.564,-40.2563,-42.8206,19.7437,14.6152,3.8462,23.3335,-21.7949,25.3848,-3.8462,
-66.6667,-28.2051,25.1282,23.5896,-55.8975,-33.8462,-49.2307,17.4358,10.7693,1.5383,19.4871,-27.1794,17.949,-1.5383,
-66.1538,-26.6667,23.0769,20.5129,-62.564,-35.3845,-50.2563,20.5129,8.2053,-0.51294,17.949,-28.2051,16.9231,0.51294,
-66.4104,-32.5642,27.436,25.8975,-59.7437,-41.2822,-45.3848,25.3848,12.0513,3.8462,20.769,-19.7437,21.2817,-3.8462,
-69.7437,-31.7949,25.6409,26.6667,-53.8462,-36.9231,-47.1794,20.0002,9.7434,3.5896,20.0002,-19.9998,20.0002,-3.5896,
-71.0256,-30,29.4871,25.3845,-61.7949,-37.6924,-43.3333,16.1541,7.949,-0.25659,24.3591,-19.7437,19.2307,0.25659,
-56.6667,-25.3848,26.9231,26.9231,-56.1541,-37.1797,-46.4104,19.2307,5.8972,0.76929,21.282,-20.7693,19.7434,-0.76929,
-51.5386,-21.7947,26.4104,25.8972,-54.1025,-33.0769,-50.5129,21.7947,5.3845,2.3079,20.7693,-21.7947,20.7693,-2.3079,
-58.9744,-24.1025,32.8206,25.6409,-69.1025,-37.436,-45.6411,18.9744,6.1536,0.51294,23.0769,-14.8718,19.4871,-0.51294,
-59.7434,-26.4102,29.4873,28.9746,-72.564,-41.282,-45.3845,16.667,2.3076,-2.3076,18.2051,-14.6152,16.1538,3.8462,
-65.3845,-30.5127,30.5127,30.5127,-68.9744,-45.3845,-47.4358,22.3076,2.3076,-1.7949,20.769,-17.6924,14.1025,1.7949,
-65.8975,-25.8975,28.9741,29.4873,-59.7437,-39.7437,-46.9231,23.3335,4.8716,-1.2822,17.6924,-18.7178,17.1792,1.2822,
-63.3335,-26.4104,26.9229,28.4614,-56.6667,-39.7439,-42.3079,18.2051,8.4614,-1.7949,11.0254,-20.2566,19.7432,1.7949,
-61.5386,-31.282,30.2563,32.8203,-52.8206,-37.436,-43.5898,21.0254,11.7949,-3.5898,16.4102,-22.0513,19.4873,3.5898,
-57.6924,-25.3848,23.8459,31.5383,-44.3589,-25.3848,-50.5129,21.7947,6.9231,-6.9231,16.6667,-27.9487,18.2053,7.4358,
-61.282,-24.8718,24.8718,25.8977,-52.0513,-30.5127,-47.9487,16.6667,3.3333,-3.3333,14.6155,-27.4358,17.6926,5.3845,
-65.1282,-23.0767,21.5386,26.1538,-51.7949,-31.7949,-52.3076,17.436,0,0,7.6924,-28.2051,16.4102,0,
-62.0513,-19.4871,22.5642,30.7693,-46.1538,-18.9744,-51.282,25.1282,5.1282,-0.51294,12.8206,-28.718,18.4617,0.51294,
-62.8206,-27.436,30,28.4614,-51.0256,-22.3079,-44.8718,23.3335,7.9487,-2.3076,20.2563,-23.3335,18.2051,2.3076,
-61.0256,-26.1538,25.1284,22.564,-46.1538,-26.1538,-48.718,16.9233,2.564,-2.564,12.8203,-22.0513,14.8716,3.5898,
-61.7949,-29.4871,25.3845,20.2566,-56.1538,-34.1025,-48.9744,14.1028,3.8464,-2.3079,12.5642,-26.4102,11.5383,2.3079,
-55.8975,-28.718,27.6924,25.1284,-58.4614,-35.8975,-46.6667,15.3848,5.6411,-2.0513,16.9229,-26.6667,14.8716,2.0513,
-50.7693,-17.949,26.1536,25.6409,-43.4614,-30.7693,-47.1797,19.9998,3.0769,0.51294,17.9485,-26.6667,18.9744,-0.51294,
-51.0256,-14.1023,27.4358,25.3845,-42.3076,-29.4871,-45.8975,23.3333,6.9231,2.3079,18.718,-25.3845,20.2566,-2.3079,
-43.5896,-14.8716,21.0259,23.5898,-44.1025,-24.6152,-48.7178,15.8975,6.6665,0.51269,11.2822,-30.2563,20,-0.5127,
-46.4104,-22.8206,21.282,17.6921,-42.8206,-31.0259,-47.436,13.5896,3.8459,1.282,13.5896,-32.0515,23.8459,-1.282,
-51.7947,-27.6921,25.6411,17.436,-38.9741,-40.5127,-49.2307,21.5386,6.1538,3.5898,18.4619,-29.2307,24.6157,-3.5898,
-46.9231,-22.8206,26.9229,22.8203,-46.4104,-36.1538,-51.0256,22.8203,6.4102,0.25635,17.1792,-26.9231,19.7437,-0.25635,
-44.8718,-24.3589,33.0769,25.8977,-54.6152,-31.0256,-42.8206,19.7434,3.8464,-1.7947,21.282,-21.7949,19.2307,1.7947,
-43.3335,-27.9487,28.9741,24.8716,-39.7437,-32.0513,-46.9231,19.231,0.25635,-0.25635,19.7437,-23.8462,21.7949,0.25635,
-44.3591,-31.0256,29.4871,21.282,-44.3591,-41.2822,-53.0769,20.2566,4.3591,0.76929,20.7693,-26.9231,19.2307,-0.76929,
-41.5383,-30.2561,34.3594,26.667,-57.4358,-39.4871,-48.2048,16.4106,7.1797,-2.0513,20.5132,-24.6152,15.8975,2.0513,
-37.6924,-27.436,32.564,33.0767,-48.9744,-29.4873,-44.3591,12.564,5.8975,-3.3335,15.1279,-25.3848,22.8203,3.3335,
-40.5129,-26.6667,33.8462,33.333,-45.6411,-30.7693,-41.0259,20,7.1792,0,18.4614,-21.0259,27.6924,0,
-33.8462,-19.9998,28.718,31.282,-45.1282,-26.6667,-44.1025,25.1282,4.1028,-0.51294,17.4358,-22.5642,22.0515,0.51294,
-33.0769,-19.7437,32.0513,28.4614,-51.0256,-29.4873,-41.7949,21.2822,4.8716,-1.2822,17.6924,-28.4617,19.7437,1.2822,
-33.8462,-18.4617,40,33.3335,-44.6155,-30.7693,-37.9487,18.4614,6.6665,0.5127,22.0513,-22.5642,27.6924,-0.5127,
-26.9231,-8.4614,30.5127,34.6152,-29.6155,-15.7693,-45.3848,19.231,1.2822,-1.2822,16.1538,-24.3591,30.5127,4.8716,
-26.667,-8.718,24.1023,27.6921,-27.6926,-9.7439,-48.7183,18.4612,3.0769,-3.0769,13.8459,-26.1541,24.615,9.7434,
-19.4873,-3.0771,20.5127,24.6152,-22.0513,-3.5898,-49.2307,13.3335,2.0513,-2.0513,9.231,-27.6924,23.0767,9.7437,
-14.8718,0.51294,22.0515,20.5129,-18.9744,-0.51294,-46.6665,10.2566,-3.5896,-3.5896,7.1794,-37.4358,23.0769,8.718,
-21.0259,-7.1797,29.231,19.4873,-24.6152,-8.2051,-46.1538,16.9229,2.0513,-2.0513,12.8203,-33.8462,23.0767,7.1792,
-26.1541,-14.3591,21.0256,17.9485,-28.718,-15.385,-51.7949,15.8972,3.0769,-3.0769,12.3074,-31.7952,22.5637,5.1282,
-31.0256,-19.2305,19.231,16.667,-43.718,-24.8716,-48.4614,9.4873,2.3076,-2.3076,14.6157,-31.0256,23.3335,4.3589,
-33.5894,-20.769,20.7695,20.7695,-44.3589,-25.8975,-52.564,7.9487,1.7949,-1.7949,10.5132,-33.5894,25.8975,6.4106,
-35.1284,-21.2822,20.2563,20.2563,-34.6152,-19.231,-53.0769,8.4614,3.8462,-3.8462,8.4614,-39.231,25.8975,9.4873,
-32.8206,-21.5383,18.9744,16.4104,-36.9231,-15.8972,-48.7178,8.718,2.5642,-2.5642,9.2307,-34.8718,17.949,5.1282,
-21.5383,-12.3074,15.385,23.5901,-34.3586,-9.2307,-52.3074,9.2312,-1.0256,1.0256,4.6155,-32.3074,15.385,3.5901,
-21.0259,-8.7178,21.5386,28.2051,-28.7178,-7.1797,-49.7437,10.769,1.5386,-1.5386,9.7437,-32.3079,22.564,6.1538,
-21.2822,-5.3848,17.1797,20.769,-18.7178,-0.25635,-52.564,10.5127,0.25635,-8.4614,8.4614,-36.6667,23.3335,6.4102,
-13.0769,0.76929,11.5383,16.6667,-19.7434,-0.76929,-56.6667,7.4358,-1.282,-8.4617,1.282,-44.8718,16.1541,2.3079,
-1.5383,12.8206,18.4617,22.5642,-18.4617,-1.5383,-52.8206,8.718,1.5383,-8.718,3.0769,-47.6924,15.3845,-3.5901,
6.1538,27.8206,6.6665,17.9487,-6.1538,13.4617,-64.1028,7.6924,-9.7437,-23.718,-8.2051,-58.4614,9.2305,-7.6924,
10.0002,39.7434,3.3333,16.1541,-3.3333,22.3079,-66.9231,8.4617,-7.9485,-20.7693,-8.4617,-58.2051,6.9231,-3.8459,
21.282,49.4871,1.282,19.7434,-1.282,20.2566,-64.3589,3.8459,-3.8459,-13.0769,-9.4871,-56.6667,6.4104,-6.4104,
31.5383,61.7947,-2.8206,16.1536,5.3845,28.9744,-65.8975,5.3845,-12.0515,-17.1794,-14.6155,-60.7693,2.8206,-6.4104,
25.3848,61.7949,7.436,16.1538,1.7949,30.5127,-61.2822,12.0513,-16.1538,-20.7695,-12.0513,-55.1284,-1.7949,-4.3589,
25.1282,55.3845,6.1541,18.9744,4.6155,19.9998,-62.5642,4.6155,-18.4617,-23.0769,-18.9744,-54.3591,-4.6155,-11.282,
25.8975,43.8462,2.8208,14.1025,3.8462,7.9487,-66.4102,-0.76904,-18.7178,-26.4102,-20.2563,-54.6152,0.76904,-14.6152,
18.718,35.6409,3.3333,13.0769,-3.3333,6.4104,-68.9744,5.8972,-16.1541,-24.3591,-17.6921,-51.0256,4.3591,-8.9744,
14.3589,33.3335,6.1538,17.9487,-12.3076,5.6411,-60.5129,10.769,-9.231,-15.8975,-14.8721,-49.231,4.6152,-4.6152,
7.1794,23.0769,13.8464,23.5901,-18.4617,-2.051,-46.6665,13.3333,-0.51294,-8.718,-4.1023,-40,10.7693,0.51294,
0,16.9229,11.7944,28.2051,-8.7183,0,-49.7439,14.8716,-3.0771,-8.2056,-4.103,-32.3081,18.9741,11.7944,
-6.4099,11.0256,18.718,28.9744,-13.0769,0.76929,-48.9741,16.6667,-0.76929,-7.4358,-2.8206,-32.051,19.2307,13.0769,
-11.0259,4.3589,23.8462,29.4873,-25.8975,-4.8716,-40.7693,17.6924,3.8462,-6.4102,-3.8462,-34.1025,15.1284,7.436,
-20.5132,2.0513,22.564,32.3076,-29.231,-8.7183,-39.4873,19.4868,6.6665,-2.0513,-2.5645,-30.7695,20,11.2817,
-35.5132,-12.9487,27.1797,26.6665,-44.231,-23.7183,-45.6411,10.2563,8.2051,-3.5898,4.1025,-27.6924,18.9741,3.5898,
-37.9487,-19.4873,29.2307,29.2307,-44.6155,-30.2563,-47.1794,11.7947,9.7434,-1.5383,3.0769,-24.1025,19.9998,1.5383,
-39.4873,-17.436,28.7178,31.7949,-40.5129,-27.6924,-41.5386,18.9741,5.6411,2.0513,-2.0513,-22.5642,20,7.1792,
-48.9741,-23.8459,26.9233,28.9746,-48.4614,-33.0767,-44.3589,12.0513,1.2822,-0.25635,0.25635,-22.8203,13.0771,5.3848,
-42.5642,-23.5898,22.0515,28.2053,-40,-27.1794,-51.282,8.2053,3.0769,-3.0769,4.6155,-25.1282,13.3333,4.1028,
-41.5386,-25.6411,25.1279,30.769,-43.5898,-28.2051,-43.5898,16.9229,3.5898,-1.5386,3.5898,-22.5642,13.3335,1.5386,
-39.4873,-22.0515,26.1538,33.8462,-45.6411,-28.2053,-38.4617,23.0767,0.5127,0,0,-20.5129,10.2563,3.0767,
-45.8975,-25.3845,27.9487,28.4614,-51.5383,-30,-41.7949,15.6411,1.2822,-1.2822,4.3589,-21.282,9.4873,2.3076,
-53.3335,-32.3079,33.3333,32.3074,-57.436,-35.3848,-41.5386,13.3333,8.2048,1.0256,10.2561,-15.3848,13.3333,-1.0256,
-49.7437,-35.3848,23.0769,29.7434,-57.436,-36.4104,-47.6924,12.8206,4.6155,1.5383,2.051,-16.9231,8.718,-1.5383,
-50.5129,-36.6667,25.8975,32.0513,-59.7437,-39.7437,-45.8975,13.5898,4.3589,1.7949,4.3589,-15.1284,8.4614,-1.7949,
-51.7949,-37.9487,29.231,33.8462,-62.564,-42.564,-44.1025,14.3589,4.1025,1.5386,6.1538,-12.8206,8.2051,-1.5386,
-53.0769,-39.2307,32.051,35.6409,-64.8718,-45.8975,-41.7949,15.1282,3.8459,1.7947,8.4617,-11.0256,7.9485,-1.7947,
-54.3591,-40.0002,35.3843,37.4355,-67.6924,-48.718,-40.0002,15.8975,4.1025,1.5386,10.769,-8.718,7.6924,-1.5386,
-55.1282,-41.282,38.2051,39.7437,-70,-52.0513,-38.2051,16.1538,3.8462,1.7949,13.0771,-6.9231,7.436,-1.7949,
-56.1539,-42.8204,41.2821,41.2821,-73.077,-55.1283,-36.1539,17.1796,3.3334,1.7948,15.1283,-4.359,7.4359,-1.7948,
-65.3845,-46.9231,40.7693,39.2307,-82.8206,-59.7437,-35.1282,24.8718,-0.25635,0.25635,8.4614,1.282,2.3076,-4.8718,
-71.5385,-50.5128,47.4359,41.7948,-84.359,-53.5897,-26.4103,31.0258,-0.25647,1.795,13.077,0.25647,3.8463,-0.25647,
-75.8973,-57.9486,54.359,45.1281,-88.205,-64.1024,-24.1024,28.7179,4.6154,-1.5385,21.5385,2.0514,1.5385,-4.6154,
-64.6154,-49.2308,49.7438,48.7179,-74.8717,-56.923,-28.7179,26.1539,3.077,-3.077,17.9486,4.6154,5.1283,-6.1539,
-63.8461,-47.4359,51.5387,48.4615,-73.0768,-47.9486,-21.2821,24.359,1.7948,-1.7948,20.7692,4.359,12.5641,-5.8973,
-67.6921,-54.8718,53.3335,47.6924,-81.0256,-57.4358,-18.9744,21.5386,2.0513,-2.0513,24.1025,5.6411,8.718,-9.2307,
-72.8206,-61.5386,49.7434,43.0769,-88.718,-68.718,-29.231,22.051,3.0769,0,22.051,3.5896,0,-11.2822,
-86.4102,-66.9231,49.4871,35.6409,-87.9487,-65.3845,-28.9744,22.3076,4.8718,2.3076,21.7949,6.9231,-2.3076,-10,
-79.2307,-58.2051,50.5129,38.718,-73.5896,-51.5383,-22.8206,20.2563,6.9231,2.8206,19.2307,11.0256,-5.8975,-2.8206,
-68.2051,-55.8975,58.4617,48.718,-84.6152,-66.5383,-16.4102,22.0513,12.3079,5.1282,24.1025,13.8462,-13.3333,-5.1282,
-67.4357,-57.6923,58.7179,49.4874,-82.3075,-73.5897,-16.1537,24.359,12.0514,8.4615,26.4103,16.1539,-8.4615,-11.5385,
-70.5127,-56.1538,50.5127,38.7178,-70,-58.5897,-20.2563,18.718,6.4104,4.8718,20.7693,7.436,-4.8718,-10,
-73.0769,-53.0769,56.6665,43.3335,-77.6924,-51.0256,-15.6411,23.3333,11.0256,2.3076,24.8718,6.4102,-6.9231,-2.3076,
-69.2307,-48.7178,54.3591,47.1794,-80.5127,-58.4614,-18.9744,29.2307,9.231,1.0256,20.5129,8.2053,-8.2051,-1.0256,
-64.359,-52.0514,56.1539,42.8204,-79.7435,-58.7179,-13.077,27.4359,9.9999,3.8461,24.359,14.1027,-5.8973,-3.8461,
-63.5898,-54.8718,61.0254,45.6411,-72.3079,-50.2566,-10.7693,25.1282,10.2563,5.1282,26.6665,17.9487,-5.1282,-6.1541,
-65.3846,-46.923,57.1796,50.5126,-71.5385,-42.8204,-16.6666,34.6156,5.3846,3.8461,22.8204,16.6666,-4.8717,-3.8461,
-69.7435,-49.7435,55.3844,51.2819,-86.5385,-55.8973,-16.4103,40.0001,7.1796,2.5641,28.2052,16.4103,-7.6923,-2.5641,
-64.6155,-51.7949,53.8459,54.3591,-83.0769,-57.436,-17.436,32.3076,12.8203,4.1025,29.2307,13.8462,-9.7437,-4.1025,
-63.0769,-53.8462,60.0002,49.2307,-68.0769,-44.1025,-13.3333,27.1794,14.3591,3.0769,29.2307,11.7949,-7.6921,-3.0769,
-56.4102,-50.2563,61.5386,51.7949,-67.1794,-43.0769,-9.7437,29.7437,11.7949,2.0513,29.2307,13.3335,-4.1025,-2.0513,
-54.6152,-49.4871,47.949,50.5129,-66.4102,-58.0769,-17.1794,22.3076,4.3591,2.3076,20.2563,6.4104,-2.3076,-12.0513,
-55.1282,-57.1794,52.0515,39.7434,-54.6152,-71.0256,-18.718,17.1794,7.9487,5.3848,20.7693,3.8462,-3.8462,-21.7949,
-40.1282,-47.9486,55.6412,39.7438,-49.4872,-56.0256,-16.1539,25.3849,11.5385,5.3846,23.8461,3.3334,-3.3334,-13.0768,
-39.9999,-41.0255,52.3077,45.6412,-64.4872,-41.0256,-11.7948,32.8204,9.2308,7.1796,22.5641,3.5897,-3.5897,-7.6923,
-54.9999,-47.1794,48.2051,45.1279,-76.4104,-54.3591,-16.9231,26.1538,8.2051,9.7437,15.3845,11.282,-8.2051,-20,
-48.9744,-43.8462,50.5129,44.8718,-61.4104,-55.1284,-16.6667,24.3589,7.9487,8.4614,13.0769,14.6152,-7.9487,-20.2566,
-38.9744,-43.5898,59.4871,45.1282,-53.8462,-49.231,-7.6924,30.2563,4.1025,5.6409,20,11.7949,-4.1025,-23.0769,
-45.3846,-44.359,51.0258,44.3588,-59.2308,-56.6666,-14.1027,24.8717,1.7948,6.923,16.6666,10.0001,-1.7948,-31.0255,
-54.6154,-46.923,40.7694,39.2308,-47.9486,-60.7692,-22.3077,15.641,4.8719,4.359,14.1027,10.0001,-4.359,-26.923,
-51.7947,-44.1025,48.2051,38.9746,-48.2051,-47.6921,-15.3845,27.1794,4.1025,4.1025,18.9744,15.3848,-4.1025,-17.4358,
-45.8975,-38.718,46.9231,41.282,-49.4871,-40.2563,-14.1025,37.6921,0.76929,8.9744,17.6924,14.6155,-0.76929,-17.6924,
-59.2308,-53.077,42.8207,38.7181,-60.2565,-55.2563,-18.2052,25.3846,1.7948,5.8973,17.6923,8.4615,-1.7948,-30.5128,
-57.1796,-54.6154,45.3844,42.3077,-57.6923,-64.359,-18.2052,21.2821,2.3077,0.76917,16.6666,6.4103,-0.76916,-30.5128,
-46.6666,-44.6154,47.6923,43.077,-48.205,-49.359,-17.4359,35.3846,1.5385,1.5385,13.3334,7.1796,-1.5385,-21.5385,
-54.8718,-52.3076,47.6924,40.5127,-53.3333,-51.282,-15.3845,38.4614,2.0513,2.0513,16.4104,10.7693,-2.0513,-23.5896,
-56.4103,-52.3077,44.1027,46.1539,-42.0514,-50.2565,-13.8461,29.2306,-0.51282,0.51282,18.4615,8.2052,3.0768,-23.077,
-56.6666,-50.5128,43.3331,43.3331,-40.7692,-47.9486,-15.1283,25.8973,0.76917,1.7948,18.2052,8.9745,-0.76916,-20.7692,
-52.0513,-47.4358,42.3079,40.2566,-49.4871,-47.4358,-19.2307,33.5896,4.8718,5.3848,20.2563,12.0513,-4.8718,-21.7949,
-48.7178,-47.6921,41.0259,39.4873,-47.6921,-51.7947,-16.9229,35.3848,0,0.51294,22.0513,3.0771,0,-25.6409,
-57.6924,-57.1794,43.8459,39.2307,-42.8206,-59.2307,-11.0256,33.5896,0.25635,-0.25635,23.3333,5.3845,2.3076,-26.9231,
-56.6666,-55.1283,37.1793,40.7692,-42.3077,-52.5641,-18.2052,31.0255,1.2821,1.7948,14.6154,9.4872,-1.2821,-26.4103,
-46.4103,-46.923,41.7948,41.7948,-54.1024,-45.3846,-17.6923,32.5643,0.76916,2.8204,17.1796,6.9232,-0.76917,-21.7948,
-43.5896,-42.564,44.1025,41.0259,-48.2051,-46.1538,-14.8718,38.4614,2.0513,2.5642,22.0513,7.1797,-2.0513,-17.4358,
-48.9742,-42.8204,39.7435,40.2562,-37.6923,-46.4103,-14.6154,40.2562,5.3846,5.8976,22.308,11.0258,-5.3846,-14.6154,
-54.359,-51.2821,40.0001,38.9742,-49.2308,-55.8973,-12.8204,25.6412,6.6666,7.1796,21.5385,12.8204,-6.6666,-15.8973,
-45.6411,-49.7437,35.8972,39.4871,-51.7949,-56.9231,-15.3845,19.4871,6.6667,8.2051,15.8975,12.3076,-6.6667,-14.8718,
-45.641,-47.1796,38.4615,35.3844,-55.8973,-52.3077,-15.3846,32.8204,8.2052,8.2052,19.4872,12.8204,-8.2052,-15.8973,
-45.8975,-46.4102,43.3335,36.1538,-50,-46.9231,-14.6155,41.7949,5.3845,6.9231,23.8462,13.5898,-5.3845,-15.6411,
-37.6923,-47.4359,36.1539,37.1793,-39.2308,-49.4872,-19.2308,35.6407,1.2821,5.3846,17.1793,4.8717,-1.2821,-11.0258,
-39.4873,-52.3076,35.3845,35.8972,-49.2307,-59.4873,-13.3333,31.282,5.6411,2.5642,17.4358,1.5386,-1.5386,-14.3589,
-38.4617,-49.231,33.8459,36.9231,-45.6411,-50.2566,-12.3079,28.718,3.0769,1.0256,17.9485,2.0513,-1.0256,-15.8975,
-35.641,-50.5128,33.0768,35.6412,-31.5385,-45.3846,-18.2052,25.8976,-0.76916,0.76917,17.6925,0.76917,5.8973,-12.5641,
-33.077,-47.4359,32.5638,36.6669,-18.2052,-43.8461,-19.7435,35.1283,1.7948,-1.2821,14.1024,1.2821,7.4359,-12.5641,
-27.1794,-34.3591,31.7947,40.5129,-9.231,-29.231,-15.8975,42.051,6.6665,-1.0256,16.4104,1.0256,8.7178,-5.1282,
-30.2565,-38.9745,35.3844,36.4103,-20.0001,-32.3077,-12.8207,33.8463,4.1024,-2.5641,20.0001,2.5641,6.6666,-7.1796,
-15.2565,-30.5128,34.1027,39.2306,-11.5385,-25.3846,-9.4872,32.0514,0.76917,-0.76916,16.1539,6.923,11.0255,-12.5641,
-7.9486,-22.3077,28.4615,39.7438,-3.3334,-10.5128,-11.0255,33.0768,2.8204,-2.8204,16.1539,3.8461,16.6666,-10.5128,
-12.3077,-24.6154,29.7435,38.4613,-7.6923,-8.7179,-15.3846,34.3588,5.1281,-3.5897,18.9745,3.5897,12.8207,-6.1539,
-6.6667,-25.1282,28.2053,37.9485,-12.3076,-21.0256,-14.8718,29.7434,1.0256,-1.0256,13.3333,1.0256,2.5642,-12.3076,
-7.9487,-30.5127,30.0002,36.6667,-15.1282,-33.5896,-5.8975,23.3333,3.3333,0.76929,16.6667,-0.76929,3.3333,-18.2051,
-6.4103,-24.359,24.3593,37.6923,-1.2821,-18.5896,-10.5128,31.0258,1.7948,-1.2821,15.641,1.2821,15.1283,-9.9999,
